Participant,Stimulus,Epoch,Fz_SNR,F4_SNR,F8_SNR,C3_SNR,Cz_SNR,C4_SNR,T8_SNR,P7_SNR,P3_SNR,P4_SNR,P8_SNR,PO7_SNR,PO8_SNR,O1_SNR,Oz_SNR,O2_SNR
sub-P001,Contrast1Size1,0,5.596275962749894,4.859271939398241,1.183050304159739,8.302988835482136,9.244887947064635,6.6227242857712145,5.579796739052767,4.563784030840435,6.715667960556647,1.6868051242360835,2.5263941846276277,6.401941437604569,3.9308411598667563,9.300906296624218,6.110192337735741,7.194651574322778
sub-P001,Contrast1Size1,1,3.806363275305279,5.747025693613233,6.833896513289486,2.3447774031055033,7.393752600203314,8.83136002677014,8.89452358914952,5.245285563822385,2.709850383493011,3.210985810689086,-3.7918319661727287,6.82395827195176,1.4366153835252757,10.252811599293308,6.636662928390715,10.002002239815855
sub-P001,Contrast1Size1,2,0.055768986232705195,1.032698993194863,6.339184321625243,0.0774909073010891,1.7433273228074377,4.330409000588177,8.939924455880233,8.248852569000215,1.9312144939710354,2.9751594632958938,3.053013961465182,11.51524717413939,5.612836254237775,12.98564265309367,10.43993386856129,11.517923677693533
sub-P001,Contrast1Size2,0,3.421055759968757,2.8879858192465004,1.161589013375842,5.631358661125785,4.484646910840112,3.9809522715764474,7.054706754090652,4.390395367740535,5.668877383907449,4.62868783909339,7.891782976215916,8.157198928498532,6.132167333153774,9.166935661491939,8.423541154045166,10.037864666715652
sub-P001,Contrast1Size2,1,1.5549541058413947,2.9342502112689948,5.444342607091914,-3.29522583504788,-2.112488952052315,1.5985786792368288,3.732883907747195,0.9679638994608409,-2.2657095185242593,-0.18449137547149919,-2.654641249438045,2.7179855270330777,1.4526527519941757,5.397260208584628,6.09901864067285,6.456627795426979
sub-P001,Contrast1Size2,2,2.290441789900033,0.6452646446287136,5.586460788753883,-0.6927084104746267,3.3685500608608883,4.590415599335474,4.136670401505064,-0.3671767885132772,-8.80603818311368,3.8796413387125224,6.803023576620292,3.5922055165959947,4.731568539072732,4.790284720110499,1.2431477899299377,5.127257293120065
sub-P001,Contrast1Size3,0,-1.3707052788373442,0.6228181976685564,2.5106677215138076,1.2961203239332528,1.8908898858609202,4.649249418065377,5.905497855046789,2.947419849774369,2.635697947630339,3.598013714148151,6.066211964923203,3.990864856753971,0.6493720405100898,6.7073700278790085,4.3173495362232055,7.917332178649863
sub-P001,Contrast1Size3,1,0.4204636552773822,1.694213548098973,0.9755335911361449,6.401425747689482,4.393785114950735,4.648078231956603,2.9867010793501936,3.2367395295612917,7.190135675765074,7.135653852066186,2.9807190848632086,3.6968484177473986,0.08066252469577413,5.99706282035544,6.966400870622618,10.002978093819834
sub-P001,Contrast2Size1,0,6.597093126610699,8.456463157719078,8.157692087162948,7.531789994481006,5.090764329385174,13.544236889342532,11.013570420144545,10.353537721502073,10.083832984297565,8.048012119356272,4.765661097769863,11.054617924747918,1.8919488432696636,10.94587814717867,6.588494752060968,8.610555946291141
sub-P001,Contrast2Size1,1,3.607006709687963,5.824057104070689,5.44613008706362,-0.38470920712573164,1.9502850256565394,3.8766668427025093,4.526294742296945,0.9215039355209059,0.33545094161524175,-0.9554258596082319,1.1306626243561297,4.798044829150553,6.04268417439356,8.460078718645944,10.412645027049104,9.569888634411107
sub-P001,Contrast2Size1,2,4.735875951454798,4.903404730819791,7.355761339456381,0.613935444908251,2.9168172967243002,5.971712588739681,9.353400272025606,-7.986795318453593,-5.787138892398401,-3.734650567785528,0.8795234141257349,1.3056446721239467,3.965735464972531,6.516829971768585,6.928822885529132,7.047599281241576
sub-P001,Contrast2Size2,0,0.46947992041439174,-0.4278533912757266,2.35245674097147,3.471796975106937,4.658952735747201,8.35894732391139,9.771239373078085,5.601631347583535,3.430697689706184,5.3969562069421535,7.879860511943296,8.24671367018769,-0.0929525817803892,10.825873649223022,7.213653173963424,10.78760941901735
sub-P001,Contrast2Size2,1,2.8622418870088957,4.246267250843981,4.283563302780657,-1.4349919981810102,2.1927867393175897,5.492926270584142,6.883666322717818,5.0412727959164325,2.368748455329764,5.349527612224941,5.015221774243028,6.016276442348235,4.032822529407797,8.874429225032621,9.318078817292877,11.06665904839854
sub-P001,Contrast2Size2,2,4.557011909962499,5.7536588499081045,5.260006562475943,1.5468282881424724,6.921505714431858,6.847447773105237,4.482801112841573,10.56491942028696,4.540390484717624,-3.0482753737812613,-6.474510293416078,9.87533722323106,-2.778275951312981,9.593442334710412,6.603250310273284,8.652336264429906
sub-P001,Contrast2Size2,3,2.194722736853398,-1.4828172292506334,-3.087723701956295,2.404150223317722,4.13106444342969,2.478814998231917,-0.10305171309470207,-2.3803153182502648,-1.2579661340727453,5.0219122255010795,1.7886277859816917,-3.8026555964925244,-0.7583696660317106,3.6299739390052297,5.656991241779664,7.084341215328749
sub-P001,Contrast2Size3,0,2.812013869797732,3.014497092748158,2.3795566073137255,3.3338992134059824,3.2709986523919508,4.124587100233088,1.6352166618208994,7.4070613165001316,6.704072377327317,4.45536420004888,6.994321045770819,10.014812247848855,5.588016869339398,12.441152660576806,12.572501907845847,14.7605941277384
sub-P001,Contrast2Size3,1,7.227907942114823,9.226891144840616,8.149814794873686,2.9538203340003215,1.2680003811739065,7.8933614359595525,8.627938636402805,6.501378652570554,4.515086664663385,2.698562815688177,4.094260648095351,7.939025596201032,-0.25909122240386095,9.035352562870742,7.884507024626638,10.882522194601771
sub-P001,Contrast3Size1,0,-0.7413729727577423,1.149448435849455,1.544506121545091,10.243219706962241,0.7292641863243292,0.5672096039243165,7.816055450840604,8.136404433780871,7.867731246017524,3.8980097739819612,3.486873932620587,6.340186046184718,5.822085561243582,4.845365088138475,9.394013635662445,8.880128277507266
sub-P001,Contrast3Size1,1,1.138024050141631,2.393156589030258,1.21745635233724,0.5881668999155929,1.176047044712319,4.520856591164433,2.5721312458261862,4.353625141644159,-8.981786233597834,2.3338037544537924,2.910811860117507,1.5950985861366174,0.9000279141761148,3.403753200829083,6.821216015225131,6.1023075686336545
sub-P001,Contrast3Size1,2,0.44700240297348753,0.8289326432911814,3.320280410041916,1.8938846702642533,-4.688896572605072,3.3909421695156254,6.972418190651347,6.1720128071023534,4.359900318212969,2.998814613788921,5.489118632741091,5.556128374065382,5.490982660080678,6.999403053639566,7.19131029241049,7.642745750012252
sub-P001,Contrast3Size2,0,-5.294945840962399,-4.049709947684292,-3.9608567115805107,-1.5237346447608104,-4.849338757516825,0.4829361412761949,2.381477375459687,7.601038518048734,4.066636269751841,1.468816418873271,6.545676630348219,9.161589688404415,5.0745959514143655,11.024646122399627,9.417637986265676,12.140637726921835
sub-P001,Contrast3Size2,1,5.554000667851118,6.361395079974914,5.798098915618999,5.662634676652486,6.6488674985271015,8.143530145203782,6.499055812904279,4.061194881388133,1.913659148858585,3.7190773208470245,5.178807434600786,7.12282520389126,1.8057750030694013,7.645261045991056,6.294436228015881,8.620170642399225
sub-P001,Contrast3Size3,0,5.464187555608277,8.415217790355223,5.915333923710991,2.5618342909884886,-0.22583397962128127,4.7626621127501325,7.25029304684647,7.4495798885596045,6.574503856322043,2.151258145168739,10.744061981394687,8.682942207343817,6.9428561260775385,10.023899565171675,9.999926133088389,11.73629820229645
sub-P001,Contrast3Size3,1,5.545211900831015,6.2478469816317315,-0.2855856402684497,0.20883489400987945,5.465567480674376,7.431593343329154,7.10769016264741,3.4625909801901122,-1.7040388830630673,5.9859287060748665,9.365051610278417,4.571480909068114,3.410139053814421,7.970260924523349,8.105395174985155,9.655347931509121
sub-P001,Contrast3Size3,2,1.8489623786733866,2.8777754389564514,4.024757118315794,-0.4838726035312073,4.348579184572798,4.7755470988625754,10.616286087806408,5.82742707643469,-1.1399568970270375,2.7040112660880316,8.156631746153218,7.085977188131995,2.8104517261945534,10.359337992573163,12.343870172060827,13.139371560492956
sub-P001,Contrast3Size3,3,-0.6993703002979147,2.30582618752004,4.120528712680999,-5.092422401032177,-1.4785570368591314,3.9277020230418263,4.666258544334083,5.517621752988165,1.2782539163499482,0.5811680244637906,6.6756014606322225,7.597556506414454,5.101894700332546,12.104273595174211,10.933822710449991,13.408933109476068
sub-P001,Contrast4Size1,0,-2.5794596515666255,-3.6391820411292604,0.5430370920438589,-0.8318265673039043,0.14435243289108649,-8.367371819019452,-0.7317173978222751,1.7147477451544826,-0.6414303323666912,-2.3535378688053616,1.853637682392098,5.131865191312073,-0.8525709426608126,8.284268016813511,8.1727757428669,10.981890395641669
sub-P001,Contrast4Size1,1,1.3812937238987886,0.40956017203519607,0.7508946208301881,1.1908309567636708,-1.6948100000810238,-11.836282419485538,-2.3436775569280393,6.757002089214098,4.3250616333292475,0.9803617729302487,2.6293780086689145,10.611410878713997,6.644640882592715,10.45765110414154,7.351992809308809,8.824745845331737
sub-P001,Contrast4Size1,2,3.049841895464931,3.272578627203142,1.2669672483915175,4.044172127971482,3.3084875828114786,5.41336838026502,2.977288741865925,3.893167623596966,3.6311519732872095,0.2825595296185499,-2.971936802263781,6.936073094503467,-1.0913390893697381,9.041852505714782,7.936179938036289,9.332188233499155
sub-P001,Contrast4Size1,3,-2.3379538926450776,-1.3516802345317562,1.672017737357584,1.4249180506183359,-0.0004595530376035875,-0.2939113953074267,-0.5217848117641282,9.65681905381905,8.027568611504222,2.010727395022314,2.9875596862639386,10.83806999094634,3.044177746489876,11.055822326163478,9.21786646726164,10.789687640918297
sub-P001,Contrast4Size2,0,3.598770876384623,5.493340383767443,6.594779495739404,6.020331489497643,4.986315065137091,5.921167395121229,4.5634760846570925,9.229131975871146,8.784379128362442,5.374171377798714,4.999338562465293,9.932620946506269,3.247828983813401,11.651497989425806,9.841225801203217,12.428220506248937
sub-P001,Contrast4Size2,1,-2.1476308791367553,-0.6583273951355131,2.456661577186376,-2.4899153198886084,0.22161042984789908,2.5295042627454514,1.0034722459576597,8.04283749929822,1.2254040950272165,2.104723552902971,6.426504826752639,9.70452961039895,4.65122508722734,9.694593040576061,6.847263605105066,9.69712854941069
sub-P001,Contrast4Size2,2,3.411570146322362,2.7524279638711127,1.11299668106267,2.320136904258763,2.8585664969664593,4.205505429557716,5.279085707275911,-0.6281671992038671,-0.8851647281047254,3.702711611575066,6.631300424894189,4.767006473935534,5.015701002616636,8.028968420400517,5.840034424544237,9.882871847105383
sub-P001,Contrast4Size2,3,-0.7357204900612863,3.762564280910064,7.075494865549019,-0.7092370995594933,-0.29758986492256,-0.35746954822197474,6.082018320122228,7.425306112647936,3.7132066890032345,-0.8194911668388647,2.817669658141037,10.259241511689659,0.01925444815842301,11.389053692612324,7.813111409708365,11.15518777925261
sub-P001,Contrast4Size3,0,-3.525544678527346,-2.6379004570716185,3.1971961883566546,5.593871750821142,0.21390635250478207,4.054265189695116,4.031106291075078,9.807382347185579,7.888608788789361,5.372214541306595,8.565225058329812,10.451802809461444,7.459980516903154,10.690059034143665,10.660961811401412,11.70916970689714
sub-P001,Contrast4Size3,1,7.264097568951896,6.382280607956958,4.216696036810143,6.414323435241657,8.715840620752033,10.998558758915182,5.607828018167014,3.370679762782682,-0.30218445274709,7.999601386631631,6.595702108276794,6.661536021112736,4.440436172261121,8.711356185387704,6.368507920909247,9.61020859478382
sub-P001,Contrast4Size3,2,4.624319282559879,5.452265995553232,5.6796748238707115,3.9913463201054777,4.117592987091138,4.162760308261424,5.258401671160948,2.752064095539852,2.959966365369247,5.6287255461661285,8.254581697732968,2.6658677576532264,7.955051348465939,6.180098645380362,6.749306655234557,9.04849684576593
sub-P001,Contrast4Size3,3,5.590552445960622,6.496756585834039,3.4815573354326923,3.640878478937022,6.94533646954477,7.644496768069313,8.834688682307823,-4.218532739104914,-5.143050398806123,7.755240195339085,9.25507348138341,3.303306308764633,9.036883642414525,8.287729721673056,8.864087073988792,12.335198191066283
sub-P001,Contrast4Size3,4,5.333565345411284,7.3796865307362625,8.147142309850782,4.214815223582378,6.283521060590597,9.071946075516808,9.85385283170858,4.930376399090175,4.35610599547278,5.69113601239026,9.65253080498002,6.515191128819468,6.790642565906506,8.62884112213035,9.226147695777735,11.399900226058296
sub-P001,Contrast4Size3,5,5.090152997301769,8.314017262428719,9.185407347725732,3.3395984853453586,6.537345042472057,8.616463415549257,9.126007056614199,5.168452602526963,4.447645922530825,3.885339996047508,4.766869392968857,9.461826914397637,0.6890157427010462,10.769021420865094,9.10208430668071,12.301953169581743
sub-P002,Contrast1Size1,0,-0.005635072556905317,-2.919044001997075,-4.156048508749733,2.155947170151767,-0.9666070492347717,-4.245494427256863,-2.431592463285645,3.969768315765074,1.7550256416216001,-0.8120838150256676,-0.9507778388898102,,0.6448654730604936,3.6310913726327554,4.298955815517747,3.188517445168455
sub-P002,Contrast1Size1,1,0.8086527270807138,-3.796258371377685,-1.1979219187766486,-1.7598699902260848,-0.8706486705582179,-1.5626760255111591,-0.5025813109740281,-0.0857398615457399,-5.6211572480418734,-2.299884689128964,-2.0600432182771646,,3.3695124145178816,6.39391179133192,6.314192569294795,6.487187051137742
sub-P002,Contrast1Size1,2,0.973781827546606,2.39848702302264,-0.30021049897154495,-2.2487733567021806,0.9940565530598583,-0.5882300146947703,-5.424851421761834,1.2515908824467845,0.13325173269432336,-1.1104840858045342,-5.125842006120777,,1.3523528736908805,8.112059322068733,8.666750610259994,6.779050778256232
sub-P002,Contrast1Size2,0,5.463968957264699,2.3215082355073666,0.6444162439668043,2.911416477870187,4.993679675311186,1.5650557965348655,-1.3953578936708335,-2.526726678999926,3.910032469950891,2.9764364266278944,0.033202377649456355,,4.494417355035173,9.313197826702547,10.232990981748355,9.110587442274038
sub-P002,Contrast1Size2,1,3.3461985985338947,-3.5204737288663286,2.807396673054912,-7.608827150678891,2.7401934675115207,7.612905107379795,2.530097679946552,1.316883464132725,-1.1853996603572567,8.90007743013466,8.191308300736193,,6.801389340594043,8.498197981994892,9.400451890866098,6.618171489527871
sub-P002,Contrast1Size3,0,2.8539932111259283,6.067585563930442,5.849307917956386,1.9826721155977411,-1.3073812549110797,-3.9796547893769283,2.021048503144505,6.371875943056409,5.041229676840697,2.2202475176464755,3.2013292945432656,,5.834716537978485,7.732812316373913,7.590710705071055,7.2261522919600445
sub-P002,Contrast1Size3,1,3.7832527507825064,1.360379671217018,4.880018240599727,1.4803560613093938,2.6516225905142816,0.2751528377119084,-0.6572219918090144,3.8131765644687055,3.3716628984938186,1.0732383002903298,2.096819400171098,,7.379256253461747,11.314211662887502,11.39232514241674,10.229114868254873
sub-P002,Contrast2Size1,0,2.4807550113596677,0.29090582600849313,2.6214776564619786,2.6875735607334192,2.8481323322260215,-0.053217729560115334,-3.285856439049309,-5.5503382287701,0.906635270330247,0.7220932099367536,-2.597404606242477,,-0.8889743198173139,2.3725759009010003,1.2304409015672881,1.1978117104690407
sub-P002,Contrast2Size1,1,-3.2060526267780176,-1.1226892335427,1.0579125513791219,-7.9188705613258,-5.867889523135136,-4.6870604728197875,1.5580530432521673,-2.1774296450603736,-6.748465881825785,-2.938779599236026,-0.4528694553178637,,0.6205587092929608,3.866532846109125,5.401905584947486,3.889365192866212
sub-P002,Contrast2Size1,2,1.3004186593727582,3.6011971331646544,4.160022069226475,1.2704015207316193,-2.0353067029002188,-4.122749148063495,-7.615487052826672,4.5217978502975145,2.2758016917406834,0.742598703216848,-2.142180304350462,,4.952947588655768,11.196228128450787,12.509342388611133,9.93447423556966
sub-P002,Contrast2Size2,0,0.6539486147894963,2.403631459633095,1.6135818200037753,-2.3251070540489516,1.061921903636935,1.6250755983693863,1.4730732298115092,-1.8701014940565774,-5.917671986143537,-8.450819931648585,-6.597836273723655,,2.603795492118632,6.315518690428512,6.756314355254603,5.715327955921538
sub-P002,Contrast2Size2,1,-1.4020069109009223,-4.088510440007461,-2.9831187944227233,-0.46836072811006235,1.5013817019339961,3.3843624142812176,2.2427972623667003,-2.5307281154951236,-4.209932872115077,-0.9800347320646868,-4.834990892710029,,0.13232909611659877,6.111375602184834,5.966054666384251,4.430640428245679
sub-P002,Contrast2Size3,0,-3.390176205804879,-3.1681991261679365,-1.0667650541738347,1.522938995484253,0.6836281079073626,-3.512163517779436,3.9954518468226103,8.708767264643969,7.758046598993675,7.288598898821829,7.551961880552423,,11.087480118448404,13.294146194679282,13.289549381391119,12.85898980902926
sub-P002,Contrast2Size3,1,-0.3416695830553528,2.0007867427606336,2.1890404559919854,-3.5331859212420076,-5.061225530312976,-5.2660818275101375,1.8871744124733791,2.4703415539194893,-1.1735683359425626,2.2337777234567375,5.422863429116461,,8.801321624059195,11.535061228505022,13.272145309312261,11.544485557907368
sub-P002,Contrast2Size3,2,2.1851699653455676,-3.9382241374567717,5.975844400334242,2.6385087394553186,3.649750315443523,4.892887780773875,1.7864920700776494,-1.5452827474688182,0.015093654662253691,2.815448297205302,1.0160187149525832,,0.27820236231372103,8.545145726489187,9.41064599503881,5.987267245500084
sub-P002,Contrast2Size3,3,-1.4401717260209925,5.491738985578513,1.2120239969190174,-3.15578337190078,-3.0051580998838325,-2.7398414119383614,-6.182070580953564,-0.8859600211245526,-4.281565169026162,-0.6289615365771826,1.4619903202363795,,6.438007618130408,10.718396725408233,11.17590965080099,9.960646163427691
sub-P002,Contrast3Size1,0,-5.528621553383242,-0.1711110427777389,4.195487561438933,-5.005056107245363,-2.8200191676549906,-3.099184417225238,0.5632615091290312,4.779925141056392,2.8182667442040117,-0.2898904501586644,4.384281361759811,,6.609245380260415,10.116046903049929,10.638907110593623,8.349736624900236
sub-P002,Contrast3Size1,1,-2.6598464468274763,-0.8317962585674471,1.2880367744107255,-0.2056403385571876,-0.12573289540445215,-0.9654983652257938,-2.227986032059372,-2.039386101384822,-0.8762628981772564,1.4175393265602825,2.372036807295458,,2.930547383363245,5.054159017457667,6.14480058142115,3.850293272527985
sub-P002,Contrast3Size1,2,-0.5812985108337816,-2.8387124113268865,-2.488862971068203,-1.5085891458602443,-5.306435410665333,-7.1246014828088615,-0.2346216461068718,0.6928679450738189,2.176196828996961,1.432418037279032,1.27513326031127,,4.168647023812121,5.79174497531703,6.156947192810075,6.431446242288379
sub-P002,Contrast3Size1,3,1.6703757817143061,1.8024835697433896,-0.399465635976537,2.35995326208697,4.803398238576923,2.6725600321096548,2.23411035546804,2.838230769599652,3.398316820976579,1.8828918941714594,2.780255898711141,,-1.4131742643806386,4.731031294597276,4.8136364061613595,0.3779375460245685
sub-P002,Contrast3Size1,4,-0.9978931015223214,-2.226125157066017,-4.151589335547205,3.0681822399455005,4.634258686840121,1.691415089587206,0.304050946300722,1.2112567200308415,-0.41403801948164554,2.5525774167547532,3.6758765599819117,,5.716807926880156,8.202221952962693,7.93421305542984,6.8743446610582915
sub-P002,Contrast3Size2,0,1.273004097906536,0.42233957640487435,1.403248137040061,-3.2090953013761214,0.17052967706915376,-1.8797745655676277,0.017048151943715364,-0.8424539713310087,-4.4991886122617615,-2.763886909182305,-0.21179956851484788,,1.907354382755879,8.050763544853519,9.472183840317252,5.234976399749919
sub-P002,Contrast3Size2,1,3.540995038829231,1.2500228524520718,2.3097777496534637,-1.5953297584711115,1.2193390470503473,4.356593960403117,-1.6129030216353448,-5.58008662168454,-4.31190276097286,2.0262051411328037,2.0779284027009743,,1.1419640096123667,5.261949991131209,6.370800332902905,3.3328347515127525
sub-P002,Contrast3Size2,2,-2.2000894400573916,-1.8306517344123652,-0.3072477555941332,6.328674520296285,-1.9768980664623659,-0.14537220389260846,2.818612400539291,6.1827558008649,5.535363451956532,1.9745539343485088,4.224569015978787,,4.681146220005886,10.446303570422204,10.383968432199666,7.418915825911949
sub-P002,Contrast3Size2,3,1.4811135088199345,-0.32293069816296377,1.5071578902759222,-0.7755767655242198,0.304196516738349,2.414033479500515,2.243043150620162,-0.4485154151366108,-3.6272494820852414,1.126638171517947,3.629653954584545,,2.3648676337717465,7.618001253412018,7.704943805297133,4.357110593473294
sub-P002,Contrast3Size2,4,1.247354508820034,0.283084868667084,3.600625091619183,3.122459095458485,2.170904018050528,3.3689997712251296,2.542150405898264,2.9975274634944022,-0.5089615573790874,0.8941237753688496,4.15751082245676,,7.389314133193822,10.92242940737159,11.795256424024146,9.509182331141199
sub-P002,Contrast3Size3,0,4.019677367520312,2.6262019364422184,1.4465537787301344,2.5711856934454453,3.180654432425901,-0.8390997754363081,-0.8941600526598645,2.757851063080634,1.9696616782626388,-1.179335385037073,-1.5837766500963193,,2.197507373625044,8.017103763299131,8.199135398716153,6.2706530410029195
sub-P002,Contrast3Size3,1,-0.8381361552252781,-0.002273279408396627,-0.06093073384508603,4.218016556646558,3.3663743764661778,-3.733745218557159,-1.5584209054127727,0.5823406246651873,2.478529204371206,-0.5632130800698496,1.1969160321490473,,6.198654252751197,7.499016767940089,10.819554598442194,9.22264933674324
sub-P002,Contrast3Size3,2,-3.2319791822600052,0.5410510198421068,-5.53749513103175,-2.220054961656178,-2.430724061433947,-7.031740740691218,5.848028884693316,-6.950725639905478,-1.7175892517373659,-1.6129157675555292,2.516486179348294,,3.3948083690100055,8.886525188462409,10.569667604830206,8.720227623317314
sub-P002,Contrast4Size1,0,2.9720081509814396,-5.576659770583975,5.0606585908952155,-0.5664416934970763,0.4093138254770953,-0.5729789782916821,2.2309215214821227,1.9108986922437428,-1.0196709445938843,1.2232719049393244,4.898268617613496,,2.394848701280922,6.645019666607308,7.802617808217542,2.3143543413150347
sub-P002,Contrast4Size1,1,1.5838468341989886,-3.8143955282740434,2.3201882504010194,-0.6545085584840321,0.6866711511904295,2.528162553426945,2.955984006871165,-3.776436964047163,-2.542616844580249,0.3196726794779078,1.66519130595046,,-2.3756825670426274,6.176921981742769,7.465493098868708,4.520870364603187
sub-P002,Contrast4Size1,2,0.9945148860717762,-3.7597381194546364,2.5472632102942145,1.524517363740596,3.574390728469999,3.6203734251373687,3.9258181334802194,-0.2959052431249681,2.065597147802995,1.3271212727158384,-2.681413127377002,,-2.7368483975626097,5.0010338499858875,5.413595855530769,2.745979881355804
sub-P002,Contrast4Size1,3,-0.8641441312083611,-4.416065150134807,1.124610962720802,-2.0642400999884396,-1.1413614566284689,-3.189942462560493,-7.427284759884354,2.899088623057038,1.463128281525115,-1.3049153235318869,-2.6768135903467054,,1.5658329293375661,7.616076968224875,7.823848505944657,7.239306687790799
sub-P002,Contrast4Size1,4,-1.4569429795030373,-0.9335344382027531,1.4530110876911826,2.3575266014451524,-3.7141595958837588,-3.510551756073978,-0.7527938040104987,6.232914951363854,7.105291530316995,2.856282516165845,1.455491005190924,,5.315880088166217,10.15192570875845,10.266868277668044,8.811266266239627
sub-P002,Contrast4Size2,0,-6.337055573411895,2.8004140158770543,2.624953428967751,-6.321281097880086,-5.717039351662679,-3.3030709071406443,2.041264687750833,-5.206886494604599,-2.4747367190575615,0.8526853087160297,4.201024024918218,,3.6320635718845784,5.418881692458049,6.533316797738175,3.8452613624067937
sub-P002,Contrast4Size2,1,0.496818091006701,1.9180438696158135,1.7689383263484748,-7.748923922925072,1.8697312674801454,-1.8102715312524762,1.588178521409209,1.0390171865728532,-3.1832428249930826,0.41101162433416183,-0.6369273679750698,,3.21224192662895,7.903262367171719,8.561788106782608,7.039234073994666
sub-P002,Contrast4Size2,2,3.055470786346366,-2.3905357044429754,1.2783873802625365,3.2936904940968326,2.8189673907186785,-0.16594328715123646,-0.20960578243574532,1.2982902687025106,0.9354908922585857,-2.9280410975520392,-0.5524470746262613,,2.7038230342483596,7.786415181406023,9.580030656633822,6.807016275690486
sub-P002,Contrast4Size3,0,-1.3850312247960583,-2.380586300716388,-2.3082613888980723,0.08750669156285183,-0.5913652165800708,-2.106907043413514,-1.2218986513786148,1.1155871807153697,1.136528360308596,-2.736270895968743,-4.079756201769565,,-2.291408774871023,2.827639393968169,1.9087589115805494,0.30188543445117516
sub-P002,Contrast4Size3,1,1.3874509062467124,-1.330024689067294,3.0880468840845166,-5.805430579115524,-1.8986244012139297,-1.5239042502577924,-0.16200385015974494,-4.353521341574042,-3.863901733882165,-2.3837357749208463,-0.7078544959181089,,1.8839924180996501,6.971078462452944,7.615437951301552,5.777084568733303
sub-P002,Contrast4Size3,2,4.863201367746851,1.0285986059656895,1.8049695241060049,0.3961309350219766,3.9171379665956407,2.0407537604338133,0.23259256704418754,0.29943512073803624,0.9714948664028327,0.6478120607695168,1.1908127906498454,,2.9219584669750764,10.461253872462011,11.275835254199613,8.092045789934806
sub-P003,Contrast1Size1,0,5.567335620229303,4.54151842511258,2.995848027019254,5.243689220742205,4.822778134848079,2.6413921630137054,-1.8595064695170003,8.839015072356283,8.347301766241712,5.00344762564291,3.6403677025680876,10.636088316153092,6.884290229971704,13.021992065654409,11.136334664632152,11.469716333934228
sub-P003,Contrast1Size1,1,9.944878001015738,9.25608957154755,5.38540781919148,7.025550710032887,9.438384389462742,8.917015011941569,3.3632092597806,2.9061571822627306,6.706985779764203,8.603958174843726,5.304107710384138,7.406476052838816,8.345273176480134,11.812412659360351,13.351185997806528,10.94173551215837
sub-P003,Contrast1Size1,2,3.9020235621974555,5.013262003031873,4.5752328249565215,4.296516240066075,6.035731920097797,7.023416698187094,5.978527612265266,2.466854677409154,4.312195311563196,8.491370265249694,7.697054523188105,6.569503012524857,8.072968137639702,10.39110706764042,11.571271775350453,10.109002478835052
sub-P003,Contrast1Size2,0,8.122338877478247,7.286784912927359,2.588683204295843,7.427805852741258,8.004876686612773,7.059391983486741,-1.2077556849261322,0.7280492658380557,5.886019266617717,8.003247946222723,7.817888496950427,0.8301750632911926,6.241083178828969,9.50612497165616,11.261065721796744,8.46384573811868
sub-P003,Contrast1Size2,1,3.7397194335490207,2.725437327565146,-2.494292104922011,1.686062460662368,6.977005277584217,5.4181821691600005,2.86197894851468,4.056467928628961,3.9622890036629643,6.008818494933585,4.516237420810634,6.257283714236732,6.725927988203821,10.153109626019035,11.482929630885435,9.025200311709114
sub-P003,Contrast1Size3,0,4.690882189318288,4.7700567847956705,1.6964974393417545,6.3632049707263425,6.4666093393951565,2.671559808349855,0.9708801824687696,3.439238398241095,7.253137269899065,7.435671385242606,5.827647760412312,6.854433242377411,10.297656158753837,9.37198378514835,10.755360151707087,10.328164787479992
sub-P003,Contrast1Size3,1,3.064728491650156,3.52075276865609,2.0664130750444625,2.5971909691329547,4.218144589601726,5.486192579291803,4.213781627885033,3.370441248327043,3.9675348065343345,6.043494809779558,7.3518469033284415,8.87164252343003,8.02373569444658,11.664820577764107,13.489977946683672,11.30742080444136
sub-P003,Contrast2Size1,0,4.159141037261833,4.469300775220914,2.7813343770740624,3.3976890952221788,3.670894434568572,6.68025349118412,5.245675619089042,5.5304259091933785,4.482427467241742,6.584851240800753,7.67244205733964,7.817104215696658,8.105986547446026,11.276697784640422,12.458781824555196,9.58114213581436
sub-P003,Contrast2Size1,1,0.8700002991112359,2.1715176640543734,-0.27742117518706794,0.20344030559511175,0.27088274202836193,1.3772572935231349,-1.5932138880250415,-3.9146907542960903,-1.683797699276046,-0.41340560740601556,0.0012461709032746903,3.062342599405692,0.2251768880763632,9.652264173328431,10.627503645911558,10.443416132298946
sub-P003,Contrast2Size1,2,2.4397140659573013,2.6154570856465833,3.115277624097101,0.1582316215247315,0.7335395551399424,3.946208966920566,1.8745679319276642,1.5733473513872864,0.351888511764455,2.273507984289628,2.4147845486817268,8.026257501203412,6.080640253178982,12.318459092323364,12.347911137599157,10.6949397407455
sub-P003,Contrast2Size1,3,-0.09441068920855544,-0.658623464571995,1.4380267878883153,-1.391068160931202,1.4914771614045064,0.4885054576552099,2.6532160996943084,4.740766594491003,-2.3891775375293154,-0.44487527331048016,2.341483921517467,9.754064409000474,-1.6599022374241221,12.62160712328651,10.904658001733136,9.183023981558083
sub-P003,Contrast2Size2,0,8.564421466164333,9.055064102766618,6.491202422556762,6.947267154770813,9.397958686564692,9.218253512364527,3.8104785635719156,0.6266586280836997,6.105794904710074,9.028403000081704,8.85126044239138,3.475221352275641,9.242102168174176,9.525891541056343,11.154464205274744,10.532663209680734
sub-P003,Contrast2Size2,1,6.325528114613776,6.8503794701288765,5.437017951832518,6.419784444758535,7.037746322478558,6.932929179452341,6.592650775106968,3.178745098033841,6.988857936611504,6.4738050129478015,6.358154775152178,5.656207558005741,5.091606541799275,10.300695203999254,12.316167215353227,9.50155074474615
sub-P003,Contrast2Size2,2,6.0407453494967065,5.343414671094878,3.283136259010072,3.824283820843885,6.891027656644634,7.571787904576502,4.178206383085191,4.283813922214119,5.69243340377556,7.082251048130902,9.008655887450775,7.996497989939319,9.074972770050307,11.13976053071486,11.673115108195798,11.549970416937276
sub-P003,Contrast2Size3,0,3.8734637236012426,3.8680434170056595,0.31916797238825845,4.358893248552728,4.14495704843204,4.366164113245677,2.136048354619165,2.0636251729372055,5.135881929906963,6.738352148809582,6.357425066295878,6.243663074724855,7.361570833121278,9.071196544429977,12.572368108031657,10.207821249543713
sub-P003,Contrast2Size3,1,4.641191449066605,5.886869509576407,5.353592787715186,3.7099804017230706,5.839792681049195,6.719179889339593,6.876703579059498,3.0960921114795137,3.4200838925672277,7.1309069113365195,7.992782882578896,6.070907429550405,8.294166153498553,11.123612817184833,10.85344158362467,10.426075777524444
sub-P003,Contrast3Size1,0,5.261989784935553,5.647595906896832,-0.0644167588109494,3.903000732898274,3.8129064182986165,6.110967290372099,-0.5386837576766917,4.589381196937465,-1.8447641419471479,0.5965237954004188,3.3272315987278587,9.443277906439747,-0.7094342303813455,12.496010662720987,13.477143120817786,11.466921110302415
sub-P003,Contrast3Size1,1,7.056005936937649,6.296770470343358,6.978211865065673,5.053637406723643,7.376155722851408,7.734571465874902,5.6188959261290625,-2.140328836419282,1.4379268835433958,5.511468789519524,5.592637117234389,-1.3648128310856953,2.1089554007581253,6.035680022130906,9.172911925611126,8.096526170102766
sub-P003,Contrast3Size1,2,1.506293158510983,2.0987172378460413,1.5477609051020638,0.8733935476495147,0.7121462255371396,1.5994354289279382,-0.5823458931259685,-0.004455990190804703,-0.11010229181468531,-0.3744143839484515,4.6608343930378835,5.001820715853232,5.577187306011757,10.2966321548983,12.122027813257109,11.306650385102312
sub-P003,Contrast3Size1,3,3.1359103767503056,4.069766044268665,4.704705450669197,-0.6699809019613939,1.6212379136784418,5.718592233475757,4.697524155766826,-0.7842976856245973,-3.2714299796601227,1.8546569287762824,5.654280603263697,1.043581718519748,5.233635093588996,6.861385467935667,9.663259202512236,7.790597737792337
sub-P003,Contrast3Size1,4,-1.4240210250174945,-1.4645546732861519,-0.7850015262658165,-6.491293166621139,-4.140053904354629,-0.8263785264763014,-1.3750346200988839,-0.7350125493493902,-3.3739772231376537,2.3261621436996087,4.480732388907369,2.3891375910488732,4.355882389638465,8.414590422557303,10.074590633857316,8.832059827439526
sub-P003,Contrast3Size2,0,2.844734000498949,3.0494114496742926,0.3130245366972931,1.528222074890154,3.5849705879014033,5.266177188717488,2.7683355736043747,-1.1980499542603076,0.9439427523381695,2.167052905669979,-1.6649293915034777,3.4136068794721774,1.220608750451321,11.048318871073182,12.725729245948905,11.891487168231457
sub-P003,Contrast3Size2,1,-3.2166532930296983,-1.917624387617253,-1.8702785307694993,-2.3751706457597264,-2.929304779789046,-1.824015763728921,-3.633870684454989,0.724119731171041,1.2575712837864126,2.8334687572955364,0.1804912574096993,5.99772339143418,5.540529220189337,11.730801991924293,12.23714508072103,12.327598902844905
sub-P003,Contrast3Size2,2,1.955984206944691,1.6282085213087196,0.25183572172866103,0.9993783001766103,3.618577847054904,2.3729079392906223,0.5352367745017192,-0.9995394879598185,-4.929016502349058,-2.5833307301185666,-4.323879954040998,-0.9292055105123159,-1.5992941738189026,5.83804860684287,9.090901754646767,7.644012784730112
sub-P003,Contrast3Size3,0,5.606969672006513,6.070617627015093,3.84568771196294,4.08483972741651,4.83585085105012,6.073342125230895,3.589248262533084,2.559127917218663,3.870841693565705,5.185183782547194,5.482912301666182,3.4997131278080005,6.51523708909836,11.364074376005762,12.69549327704835,12.115188506595045
sub-P003,Contrast3Size3,1,4.577910127926872,4.357922177900948,4.8609318747602375,5.152201769667992,6.886711696763333,6.239455181408422,4.483568943492658,1.0423339754611163,0.2411721932085242,5.814534538555575,3.9754676880775253,1.8235095741080765,-4.805208314178891,7.880248368679413,9.542718305250576,9.120285433482527
sub-P003,Contrast3Size3,2,3.430002173726982,2.5812529590013162,1.7565947063613354,4.3109730625714775,4.614437264599388,3.9862591506910854,1.9352473407364363,0.7536356643103014,4.461934144432795,5.067821380070967,4.078874934670663,1.4969953552913697,4.623900518276278,5.0800777870510885,7.981474214923453,6.8877650770068035
sub-P003,Contrast4Size1,0,3.71367328010044,3.468994798074606,-1.0855470476807392,-0.11469840042135714,1.8712782029431532,3.4644846577571764,-4.949947143223531,-4.734772054627715,-3.7194164644301826,1.4545464976328346,1.874254885993526,1.6574518967297789,1.3690631768995605,5.092374810608167,7.6323216610244415,5.683037277196627
sub-P003,Contrast4Size1,1,0.42878279557401966,0.6056844728321151,0.12542623971782074,0.8018537521621073,2.7929943902462613,2.0968236556396787,1.0274153987536236,-0.11469295580258922,0.4985421818861408,3.861670673792259,1.0379344497075307,1.6787372532215254,2.039211436692882,3.916220747145709,6.083266428150543,1.5073773831764088
sub-P003,Contrast4Size1,2,1.4553418303395802,1.8143241742365932,2.0274835632384676,0.9139746093356809,-1.4544829909782413,0.6859699515648626,1.8181777702580117,-2.114775167078418,-2.3201213778391034,-2.1291107054971685,1.6631553665368766,0.6643996750037588,2.5879390153346464,6.410039428403627,7.574479214896611,5.805833565532879
sub-P003,Contrast4Size1,3,4.945002820526953,4.730363301667478,1.6545004480124572,3.6985478119980595,4.886536097402454,4.696036957796572,0.9775957449338288,1.695000790475722,3.68808876902822,6.099349251763425,5.397264357044374,2.344182528254597,6.1863772710847575,4.949830550307753,8.58083827908414,5.690666864385479
sub-P003,Contrast4Size1,4,-2.177551173457657,-2.3935865542522534,-2.539171847444571,-3.539479872539814,-1.9055306373935446,-4.918716474093386,-3.2886487616842457,2.510195857904107,-0.14939252018796176,4.177414808907497,6.472046729350447,5.031440673880888,8.581235324705244,7.336670325886471,8.356111056274681,6.471187350243067
sub-P003,Contrast4Size2,0,-2.7431681719029672,-4.056318387126401,-2.479295310883059,-2.621238491732706,-2.022376298478849,-0.4646382039061184,3.718758029110645,5.624126934654237,1.0873354283683285,2.042933321370672,3.5803301191050148,6.032135481342675,1.774588580516445,6.947388511296597,8.304371747956647,6.669379146307052
sub-P003,Contrast4Size2,1,4.8357709945166825,2.576239460145172,0.9793577012125221,2.897140011537411,2.2686998543105856,3.918327010439477,1.196770938848663,-8.549822244152912,-1.3591050733954302,3.0143924310856436,0.189207134849313,-1.810450808870261,1.0350440441094455,5.9089733964456945,8.094664572557202,5.972907022505858
sub-P003,Contrast4Size2,2,3.9054327437826393,4.291865229942456,4.786893424305655,3.1404588446837,4.4458070559495475,4.049889007749005,-0.4994001820648455,3.42536473994034,2.7014364772968764,-0.04130508477625903,-0.5005054878315532,2.485573749098682,2.6116380708311446,7.794541537023761,10.682912743419218,8.153343450062906
sub-P003,Contrast4Size3,0,-0.47827715764939827,-0.7760338393295378,0.7773052521571454,1.7530449235142909,0.679183337228269,1.800843479112767,0.6351045442619732,-2.599080933171627,-2.5992182776918216,1.7761068683699286,3.2182057907237245,5.213498407085804,3.238272634908879,7.815890682602737,10.533307419017458,7.65790690232274
sub-P003,Contrast4Size3,1,4.7266736555538875,4.424792196878853,3.9982151148314617,4.117576696461811,4.835808266115643,4.2640960450337255,3.852102901898614,3.796210975784412,-0.6783984204455178,0.6807242757548402,4.166801892581721,5.209460290627489,6.534079252197607,11.36892833895496,12.49304229812996,12.130497136161464
sub-P003,Contrast4Size3,2,2.271885902460401,2.9190438645551136,3.3486881923266316,-1.1800955987607205,1.8345134962988843,-0.04072632270091742,-5.209087060452269,-3.4740925428581795,-4.356896978760037,2.0536071856748666,2.397247339390777,1.8894514895310623,4.192498503608559,9.87796528832719,10.94212202524526,9.042316369339874
sub-P003,Contrast4Size3,3,3.4597625285604323,1.5499022936684992,2.2766463214115036,3.863374696003566,3.300036875399293,3.009398508937124,2.409321041682429,3.105274133920367,5.5843153484717725,6.065175442579363,7.07967985348548,6.348113522291202,7.859388116111221,8.314588138550073,9.884079607927344,8.48443117401054
sub-P003,Contrast4Size3,4,1.1297511878725084,1.3389451419278746,2.301437877121548,0.008649598673360352,1.949966743630559,2.3260657469685238,-3.4402642364268994,0.27443022889592433,-2.135485384788627,0.028856157722461653,-1.5681679371247004,0.897309559161576,1.2423450101672597,4.9396014206866665,8.740699032959775,5.6581258325103745
sub-P004,Contrast1Size1,0,0.903451250348335,0.8168122492105557,-4.542125323164104,0.2779911030174792,1.5347724260671818,0.7250216076549116,-0.36069849795734293,0.9673946691101905,0.5091721226839121,2.042899421683733,1.4313398930802081,4.773459022290327,3.136955991113437,6.0807451265079395,8.640194750030833,7.017646155911843
sub-P004,Contrast1Size1,1,6.48258208847119,7.371972185715974,6.2611496339382064,4.0586836325396005,4.980030568420897,6.376415797922345,-1.335785741633371,0.3506856441009368,2.8086171129442477,1.8963789922082954,0.8249093867511126,1.6404480450455838,-0.41195097558221033,4.8817342298744055,8.404267568313621,5.04971698407669
sub-P004,Contrast1Size2,0,1.4541889403317434,2.0116489673060696,2.0070880239178788,-1.0974968963568008,1.4728132615125498,0.5741082777888971,-1.3851852527243713,-0.10463027178182184,-0.06394215841095667,-0.6012158165080694,0.012503960679319314,3.656982990629249,2.1671969874758448,9.418338995438223,11.080553000490774,8.331901721502739
sub-P004,Contrast1Size2,1,3.6578963121937678,3.7722591051212504,1.9951765599900984,3.5244190356084877,4.327141045549262,4.030152172897035,0.5040468109135575,-0.9311735787262886,4.218417514407688,3.945215393755217,0.20037197430892523,-3.3550225822977566,0.914125854623966,6.291177859265002,10.95388970394611,7.208462041667404
sub-P004,Contrast1Size3,0,-6.038529039807631,-6.034084427428084,-0.23402671204652617,-1.0572422269606985,-1.3491225830185172,-2.5743580879767554,-0.9741248538080904,1.9265562183535665,0.3972908363859491,1.067301278183217,0.3296270426300689,4.684102256214003,3.35943404031388,8.037988348196999,9.601837801733726,7.078317560199212
sub-P004,Contrast1Size3,1,7.92698237381403,7.981353719355622,5.777700041875323,5.042453774914514,7.220073027504346,4.844167462366753,4.557750591044478,-2.3081501887851674,2.0533722520168167,3.225811053483312,0.8486031494539306,-1.327751588127291,-0.17764791570803268,7.210611821100871,8.113349950219627,3.7323327400617607
sub-P004,Contrast2Size1,0,2.609872141207007,2.6205736731006595,0.7179219847466274,-3.029693929663777,-3.249804387035179,1.4671644968844406,0.33775478598918074,-0.8492902490852021,-1.8223999005285394,1.3606556966024528,4.450202153288559,-0.6164751724979136,5.316805834799585,6.222779641233722,9.03785459603698,7.005786037780552
sub-P004,Contrast2Size1,1,-4.362255876662514,-3.699116888477698,-3.082724139476742,-0.8034242047638431,0.11470312790041806,0.5213381588722367,-1.877273519834851,-3.290162050482157,0.5482522405939905,-0.3659693201150965,-6.54229072006803,-7.54268236675976,-12.094388609095754,-0.4416915593026522,5.358725716320322,2.5780917177821583
sub-P004,Contrast2Size1,2,-4.78239504033553,-3.973188768430977,2.1398318653734956,-2.429251011202182,-4.155254904477959,-4.1704356409675505,-2.776028747955233,-2.6669661212020674,-0.6330281633826045,-7.042235614521168,1.8418433550332853,-2.996651825604966,3.4116685843800996,4.397262817614916,8.721034441490437,8.02380720679323
sub-P004,Contrast2Size1,3,3.8840324423109345,2.6418450694037303,2.9595085661365057,4.971395481317047,4.858674431457923,3.9122676510615046,1.7908458548604744,5.317708590602189,5.052986891179014,3.0741712596500443,2.881426823994162,5.139554142540126,2.113627884414865,4.268666649782392,8.0995018877423,6.847259417878986
sub-P004,Contrast2Size2,0,-2.018496452449904,0.2702763455358193,-1.4052168457863292,-0.7950026580567562,0.1944112001303303,1.6126977948130894,5.32492660111097,3.7943405284123655,3.0778620957311595,-0.13907285841046566,-0.35165798134433635,4.211363594502134,-0.6684344013170208,6.6715051620360075,7.998886944542579,5.327210500512351
sub-P004,Contrast2Size2,1,2.310670811841766,2.07828945279175,-3.6046419040854873,6.191812846887913,6.366101375000049,4.728844357453266,2.112866498848058,5.804347686991024,7.1443059353786715,5.491260019862468,4.286527099342438,4.873610153086233,3.6708723356967186,4.638047747417983,4.7431174942640295,0.10748944188462162
sub-P004,Contrast2Size2,2,3.6458301598881393,4.078235131023717,3.3844991548485597,6.277857244817523,3.9672960875243484,3.6649078242882576,1.9589204055533402,1.4665671085510485,5.031923815517578,3.1598902346882025,1.7761848228610535,0.24021937106067606,0.08067319727866754,3.207264443949635,9.132833625613872,2.938019229746542
sub-P004,Contrast2Size3,0,2.2593382073317434,2.7177188448215563,1.8324859622050802,3.4860790942878612,2.3128156673044775,2.0314280649841585,6.32963225561698,4.200915785210954,5.745002872571935,5.04713214847505,-1.4694145382899273,4.275920697894317,0.6079616239035659,6.553962135408317,8.233012097235225,4.664477052813395
sub-P004,Contrast2Size3,1,2.034361471388227,3.43354312207593,3.9856380193484338,4.341484473499758,5.704913065492545,4.866777011014408,1.1125446320209962,2.2835288079591325,2.8466970748283367,3.695184162259921,2.4868497740192335,-0.7818421874384585,1.3064541796329077,3.3441008635686558,8.037669126382422,5.324452642903176
sub-P004,Contrast2Size3,2,6.040226631226187,7.281589390898988,4.861617646365301,4.7787491437822505,6.291517119371839,7.149907290133567,5.820811365231394,3.1373876782347976,5.02193835507742,3.0612651613686936,1.7112106628616588,1.7400000125140203,-0.7336195497696335,4.146415369694646,5.846383453519155,2.992194346810722
sub-P004,Contrast3Size1,0,0.22729780698805546,-0.02378701816866456,1.5497366104557644,-7.569558772574421,-3.969193552824465,-2.6725978736755884,0.820720230898488,-4.6160974384157205,-6.934742858489172,-5.843058406496711,-1.0643115038627102,-2.657516041434265,2.0446542582805574,2.480248268616244,7.178961886573476,6.288192430595624
sub-P004,Contrast3Size1,1,-3.9872339165286204,-4.119882959166682,-7.260156416998644,-0.8203216913126371,0.2177207155648999,-3.1693377627379054,0.6681426788326923,-1.9310662377226526,1.0944844401062466,-0.5545527459760344,1.9025491856696672,-1.8256703097704583,1.71736356671893,-9.202183260346867,3.562040776438677,2.2875699892554344
sub-P004,Contrast3Size1,2,0.42630391559732644,-0.7533623459008282,-1.7603549602219581,3.4304505916568875,3.9357419471496806,2.435384659482421,-5.804463436250835,2.5932387890235042,4.587157840375359,5.548160978746698,5.5311667296952995,2.8192181116092256,4.466563798477022,3.82800201020723,7.001709923182284,2.398205034381408
sub-P004,Contrast3Size2,0,3.802409669436879,3.6450624401113996,1.5559247674440513,3.3363408012988147,3.82800742766309,4.094841613471044,3.279771460782073,-5.608369837561959,2.307884982677707,1.1545166440846222,-0.508793952133388,-3.5270493235856066,-0.7525623195408673,1.1442593192074744,4.994727859723484,-1.0367113608400031
sub-P004,Contrast3Size2,1,-0.26359157346621986,-0.5595793173527346,1.9337455361547453,2.8132194057369353,3.0588971558616085,1.5872288457162926,1.9048282088649944,-2.603756456940835,3.612284925062641,3.1686749391439557,2.0910366553413695,-0.9881552373376696,1.2215826741176332,3.5358653454755693,6.693859813484573,3.128857698828687
sub-P004,Contrast3Size2,2,-2.0311621994441804,-1.0938217386218463,-5.167551205157565,-5.335121265003697,-0.9941498295379445,0.5208542367416215,-4.417861050605375,-5.927201770251034,0.0515556019730511,4.005066787228665,5.7027100081393165,-2.8269303210715835,6.263254449758681,2.5216581413091794,7.98192482896977,3.7710721283523703
sub-P004,Contrast3Size3,0,0.8844475877190144,0.33846102405046985,-1.2027695048774523,2.59127499630154,3.3898344136243006,3.0403664045906424,0.19689135867594326,1.7124865869481745,5.258667678841561,3.919486965284857,5.781343367043384,1.9063399333266036,4.842995097848383,5.923117343118327,8.95796597671577,3.3199558123999235
sub-P004,Contrast3Size3,1,-0.008803702234400128,-0.6027785347051412,-4.965775261733489,0.8729933957329126,2.9905386447687654,3.1285710000565925,4.651823451060592,1.8767366472361404,2.8944876551622096,1.2604907025002072,-0.008475870491417547,-0.0575775323561544,-0.3257307828845313,0.6299530359726919,6.373261135274735,-0.3345607244173754
sub-P004,Contrast3Size3,2,3.171801547125996,3.8672899462924915,2.5724654011214945,3.593939604408619,4.2738943942339755,6.253233875764261,7.333787873429566,2.777740146670914,5.553883205725455,6.579196289904229,4.144446901194674,1.5942514665478642,2.4353331679810246,3.25778330951725,6.2415492343510905,0.1651650633748443
sub-P004,Contrast3Size3,3,2.9828564119067074,3.3541516369147395,3.5413690360841326,3.3173755139191123,4.41455169652454,3.061522613504021,1.4837437085025478,0.15508145710585974,4.846307522891658,0.8977924514225005,-1.7476011842572814,-0.47249313144777155,-2.503869607365856,5.62835108093977,8.00132181900645,4.785613480859366
sub-P004,Contrast4Size1,0,-4.637068029292648,-5.057194250476378,-3.002621757467749,-8.141535269923864,-9.709836748659376,-9.426235938735491,-11.278802761739469,-7.591120229883574,-8.899425080818776,-1.1027088042793696,2.295346416011536,-3.9394125842409626,3.7983739135622323,-3.8660703789764206,1.8491658197761995,1.6083182954873745
sub-P004,Contrast4Size1,1,-8.204167759729117,-8.275363231945615,-4.031117648914903,-0.9709615645904663,-0.029103502483505128,1.6027181493429477,-1.2561554895275542,-1.7562410413569365,0.42616317875789944,1.6551468688366955,2.761563353283959,-0.3636338038371237,2.95564456041074,3.195800102664772,6.684057932404707,5.203775313626107
sub-P004,Contrast4Size1,2,-1.3645100005668684,-2.82491498714867,-3.9277931028586472,0.45377299213322697,1.9091230791012737,-0.4110499565683575,-3.204019994304038,-2.61860506755883,1.1433587010096578,4.50822661364156,4.5977749979060345,-1.4242864643332527,4.094207307169131,-1.9668415112280053,4.471716546786819,2.8159580897506724
sub-P004,Contrast4Size1,3,-0.6388720027197492,0.5684542209915371,2.8645356645740727,-1.073358418987417,1.2317243821853316,3.0509064110415336,0.9763144915592039,-0.13157788338804732,2.1229104025552865,4.477014642277764,1.231659873097198,2.307474341394093,-0.8883552919626901,2.2034880347216728,2.9164867903565432,-2.083444095505808
sub-P004,Contrast4Size1,4,1.1298977438298368,1.8785632210545984,-3.413004306878925,4.110679546541353,2.9883922953810558,0.4931613970559031,-1.195273049844163,2.758074206312621,5.606946559805435,2.506203420127772,1.7897568038126919,3.245086604550079,1.5476627397354914,4.820381076221604,7.647610492362861,5.439149116603605
sub-P004,Contrast4Size2,0,-1.807215694869305,-0.2275448418553977,2.375518319315794,-9.768368912388862,-4.396007882004529,-0.9426018542288925,-2.726273070485913,-0.9213471696723927,-1.856547303541739,-6.0778225913476005,-6.967211576620118,-0.36014640877169346,-5.756177460907782,2.8788364389760455,4.586896558983425,0.0419213088056678
sub-P004,Contrast4Size2,1,-0.9570966355033501,1.7810796406657938,4.193957657749062,-0.6154147999048385,0.6156469218891809,2.322427334294292,4.839665883224804,-3.7856385020638927,-0.3852606340623549,1.3207025052864696,2.4341608630546756,-3.963851182140263,2.662870099593992,2.1275870010375892,7.27056396315972,4.020196486046515
sub-P004,Contrast4Size2,2,-0.608777017788353,1.659648940904793,1.2707279702352836,1.7894211171367558,3.116795391351863,3.714242341190734,2.2143693732361793,2.9969626555589657,3.7242725579102998,3.7392896118972425,2.9881121543741243,1.1305371482342925,1.5720180916189817,5.76624334264496,7.556086951636603,2.8753001528342774
sub-P004,Contrast4Size3,0,1.076576749437105,0.9382049978755131,2.0060675713382397,2.3613885811127098,2.2402251204975285,0.5705437280598942,5.74942843046118,3.651354107607714,3.5769825986128634,1.209857114954704,0.2893466838183842,1.0347294316750002,1.204064520622108,1.742210394346693,7.098604174157249,2.852393696339311
sub-P004,Contrast4Size3,1,5.9611866392003146,4.383120040340429,0.15402495282507314,4.349141800704299,5.507573290031877,5.644641728167169,-0.049465248595267935,6.931617374333284,5.846886656667599,5.636667226102361,6.948045393377544,6.6261386306282155,7.129438963225821,8.133325024191384,9.936855105656715,6.004787149832102
sub-P004,Contrast4Size3,2,-2.149818966823241,-0.15635770277858485,2.70577937070576,-1.3572670948809782,-1.3888255014975939,-0.7641766970141385,0.0197502181799112,-3.3152964239336984,-1.6556810721956297,-3.3460108018911807,-2.142014249528395,-1.1783724735258185,-2.476245131174837,3.900422789959947,7.837643147013419,2.4845831902745763
sub-P004,Contrast4Size3,3,3.5162901552885635,2.306426741714276,-2.4276711673740174,0.6450541622777679,1.9711066121927623,3.0982321050170034,1.2959353303475472,1.8088535959489884,0.6437781024943576,-0.2605568482456545,2.778719851633638,1.7126257814201638,0.2938852570570881,7.2187458795323165,9.201028043168096,1.6463021332122132
sub-P004,Contrast4Size3,4,-3.3127155351148647,-0.1393359792223202,2.315535481639937,-1.297852162746527,-2.125950034978036,-2.2401142769344045,-0.8560897312973423,-6.62775890844399,-3.1143815479855386,0.4754971111761,-0.7304892972714396,-4.22691309473419,-1.2039404445182615,4.82378363732673,7.367613202835686,-0.12668713382209673
sub-P004,Contrast4Size3,5,1.3019182967824325,0.2797977155512843,-0.08247304629187888,1.33210845710608,1.084104959836937,2.3272020016903063,1.5742324944375992,5.363883446116716,1.5322108069733407,2.0862935813307435,5.733767817843093,4.169856761749477,5.046287004156013,7.390635442307532,10.428562334169333,8.008923003392871
sub-P005,Contrast1Size1,0,2.973394838602619,3.2372603613647026,2.3489681843968615,4.414454976520888,5.370020380491854,2.31299365871147,0.5510719005968753,3.3006590524101673,6.592888823039588,5.632432668027225,3.3634268911180603,7.690596131490887,3.68685656014946,9.721018610137824,9.008173482122814,4.524477400349479
sub-P005,Contrast1Size1,1,-4.189432336017801,-1.9182364578514997,-1.7061671220260919,3.2585576638643627,2.9160630610194676,-2.9280707387969844,0.37284385807337017,2.4864690682007926,8.790789403860723,8.227529156709682,4.096093533200068,5.39873171154861,1.6013386774374565,7.529972083279008,7.994502937719633,3.590673421160044
sub-P005,Contrast1Size1,2,-3.191323240554822,-3.2665383178329503,-2.2560622838300306,0.27548787014420417,4.780479762860585,4.722649342137216,1.7704428400483943,1.7528552721080626,7.927853473562923,8.893558539015146,5.824512766432227,6.123095290656012,6.848663356202653,7.763238517477049,8.052834560760203,6.9678189783918505
sub-P005,Contrast1Size1,3,3.1345352943001608,1.2966796978400483,-3.206147082771812,4.843489869815025,9.272736688821388,6.751277408203331,2.623360749903279,4.603732381439346,2.89719077476035,11.558208731318958,2.299262360865581,9.104982771333068,8.336234198502538,12.009571522682005,12.783367760625326,9.91426209460265
sub-P005,Contrast1Size2,0,6.936593328254909,6.699179268823788,5.6831430844087905,7.556148745389311,10.480935046080829,8.469478021054922,4.503925959923465,2.9728579206152657,6.416094561298543,6.872872662644738,8.25122102686401,2.075355675568748,7.726801046980896,5.068259325336761,7.709290740867556,3.943097113956127
sub-P005,Contrast1Size2,1,5.3749748803926085,4.8046825176131955,1.659264047110454,6.217755271574549,9.940017468811055,5.944054546563945,-2.4054522294419507,4.591656171071737,7.283756450567854,7.927392628998973,5.59719426197829,2.089717960377403,3.149331899490462,7.326521860509004,9.220927182249328,-2.7807108712702777
sub-P005,Contrast1Size3,0,5.750486621931308,5.640389417651078,3.47695618828269,7.785384421706808,9.481057145597163,6.044678520222281,3.3603360142599055,4.22959591726764,8.179377034550694,6.551656659039029,3.1909993388520945,6.950244761094141,1.2236071702551015,10.801877877219752,11.605904910330608,5.148924979847667
sub-P005,Contrast1Size3,1,7.97612892532314,5.8136981678144215,3.7628643747076724,7.02467319265393,10.032002549468299,8.107526626965608,8.009734167236186,3.180883547661612,7.793345780059883,7.617470992088792,8.38666531436323,6.249411102054337,4.348052457810855,11.351713582780556,13.41810674927885,8.416229456681389
sub-P005,Contrast2Size1,0,1.7153299952819214,1.897248418392044,0.9175268544581227,4.514674097067926,6.825171572532835,6.218443339615303,3.205934053257163,0.9455703509426989,9.15491919291855,9.867216284476397,0.268577402283515,3.936120477303651,1.0665168422380202,6.925365057061671,8.811064735783296,4.399752647551905
sub-P005,Contrast2Size1,1,4.721195837127113,4.8770675958545615,4.184199052297879,3.457369020844345,5.574975750258217,5.635689887841986,4.827130820134668,1.3955312208141921,5.7749505570400474,8.972557321409173,4.010240258488148,4.887472613057701,6.036943938383158,7.890157696221282,10.032302002449285,8.932718313291959
sub-P005,Contrast2Size1,2,7.257240502600321,6.619285310199939,5.9224528373489695,9.186075515351762,10.4975507691146,6.280870173975438,4.101110958440491,4.300844716373053,11.261393798689344,9.717526070938533,6.182817672436895,8.652682162721145,6.164646607293456,9.887280678482123,11.546322147157364,7.793736108284413
sub-P005,Contrast2Size2,0,7.497006252949782,7.742682005222967,5.265874204556072,8.434083876845055,10.389518038584956,8.821789545888066,4.8226803194551735,4.431623386115321,9.853983721511515,9.123100370506505,1.8797073093750942,4.7926652267442575,-1.6737323174180538,8.667729494226856,9.430481086401278,-1.5916455093741841
sub-P005,Contrast2Size2,1,8.578109142494087,9.56944358587372,8.561210209759174,9.081336986888811,11.120499289058133,10.183297784929486,9.683599578141214,3.443908145139086,8.854749215891548,9.955875004696688,4.051781666777235,6.330351833377414,-1.9374232142349546,9.435393661551906,11.355854041534814,6.427679243839894
sub-P005,Contrast2Size3,0,2.668026002796901,1.5285757970843328,-0.2592196533772849,0.7067721060690914,3.5459902209061225,1.5646155837964684,1.8159545736896263,4.675570992386348,2.293068157594776,-1.583637484203243,2.2705987511736767,6.52049573240091,0.7500785986861992,8.375073091759962,9.693359890038414,4.859365317790659
sub-P005,Contrast2Size3,1,-0.582320053881223,2.8963385707327696,1.3543935609957014,-0.9893619576425106,3.0141364123483596,1.642920607902891,0.7899248710316564,3.5809041518404037,6.473510992543271,4.338604300965927,2.8587426854840876,9.4409808155604,5.156710676403136,12.110589763272905,13.214333525819734,9.943653652626397
sub-P005,Contrast2Size3,2,7.924005646024828,7.081797606108539,7.259250229201131,7.298634461990478,9.793568192891982,7.374855944040792,6.1385207174448855,-2.6242900163503577,5.582297315448528,3.830513997229911,7.531941798377076,-1.0631335112303266,8.02635417264919,9.692589017068657,11.855432549621995,9.658498447453551
sub-P005,Contrast3Size1,0,-1.8168743434356078,-2.3838092431657483,-2.5154807654405382,-2.2819770947426457,-0.9847359961775694,-2.3063395963650413,1.00260370611341,-0.5350197795645614,0.4115361075190429,5.9671267847133755,7.836345059352931,-1.0805060488127867,6.404157655819445,0.513500744441741,3.2917360922466687,-2.989796149734068
sub-P005,Contrast3Size1,1,-0.0040550921734442994,-0.31216548938842714,1.9324674980389112,3.766336862402984,4.13907216971145,4.278908820327933,1.0468437233307297,8.126204980803099,7.297755560572561,5.845651716302816,4.7965897886889275,6.67969419863161,4.957874573922456,0.4785660243775496,2.315101453246539,1.9794637651209954
sub-P005,Contrast3Size1,2,-0.8316903610543113,0.032577226953871045,-0.9670161146681978,-6.433172538848923,-6.948136524134949,-4.431255718577431,-8.476224223395855,0.4772286082556588,-11.649632260986468,3.213327188679185,-4.989931580198799,-2.0301622856381822,-3.1409956484107933,0.13198169976141869,3.5633340806330227,0.5062651664050286
sub-P005,Contrast3Size2,0,3.0309001816944825,3.6170669712682715,1.6300889733455342,6.184505885740197,7.210981080434527,6.893303192350345,4.247055676520487,3.6893721902279433,7.943604654933932,6.5299548557593035,8.115430212787022,1.239695199072751,6.115126900177432,9.074193406793453,11.745111956688056,3.848125937745567
sub-P005,Contrast3Size2,1,2.4627212161520187,2.666690621927593,4.203895016297137,4.141897726213078,6.11323116005967,4.350923579106581,2.0845598866318515,0.8048439689202408,6.930768831594298,8.648870254806312,4.717203259679446,1.5796044185824667,2.258890245570015,5.220416103034716,7.600420865428079,2.13394598182487
sub-P005,Contrast3Size2,2,6.387617077425688,5.713098533959142,1.1810359394219276,5.40531704411239,7.840512471990917,8.546722104116157,6.24483810167074,-0.6413234865189477,5.156661579129035,8.713235584360442,6.5045658649777485,0.32854005555179705,4.188304567059657,7.7987398959194865,10.60452121679316,4.666909678626893
sub-P005,Contrast3Size2,3,4.190608910121003,4.151364246476937,3.4982994912053362,5.432794156596561,8.139045599567309,6.063849650505496,6.681644669388675,1.7764723401228544,6.869999588525852,8.736134558582034,4.683440557122106,0.701341575588546,2.0751467372216714,6.260117357762604,9.689316334853874,0.053550402702011876
sub-P005,Contrast3Size2,4,6.987023350330532,6.789464963592541,5.744963951651637,8.365103303815513,12.124228273991037,11.651289277565958,8.002289637299981,2.663067676113976,10.954299473562209,12.95468731787346,10.629007121108753,2.7194693577765783,6.425875269370284,8.772261449165583,12.467603942261698,4.515762156314683
sub-P005,Contrast3Size3,0,5.359440237116661,5.867025116857391,4.471640338570105,5.772612413662018,7.603808518054338,6.342776605556693,5.4189586891437465,0.8571456434875719,6.862755131561395,6.517654712957855,5.636833080229496,2.751411474074872,-1.554348408268071,7.446365688290676,9.455464913522238,5.083249946203637
sub-P005,Contrast3Size3,1,5.342933228740151,3.901427522772341,3.1036779247140855,7.5602036461674915,9.360327310834979,5.392906931626379,2.0320934542358953,2.7658200224899536,7.903137254410119,4.669849132357037,4.310062008138726,1.5594198876248928,-0.904502514737068,8.814012792867834,11.188357870832021,6.652819685413677
sub-P005,Contrast3Size3,2,7.4419515263062666,7.480775252492609,7.019715336903296,9.013757917044382,10.155617064367279,9.38318125185622,8.82998634312775,4.478683470545307,8.5317674052022,5.989462696909228,4.752825518546181,6.154227120383049,3.491324997973214,11.574470493361801,12.936355904245445,9.737890217022624
sub-P005,Contrast4Size1,0,0.4629045514261978,0.9775435796354238,1.5784566921973375,-0.5430519106910728,0.7930712720653589,-1.4289230887240616,1.7821108835857113,-0.6652589437028712,4.360879374088583,8.429863017872437,7.9850420253073695,1.652048524275519,7.255102369795912,3.0139111369186073,5.902104742539466,5.314807591786682
sub-P005,Contrast4Size1,1,-0.1285487100840459,0.6288513108058075,3.164537775280729,1.18902923488372,3.9212413953751963,4.079663772758969,1.5541949465223923,-1.1396396780714455,4.482354051671514,10.598835272289985,8.993087962583195,2.1383293216919186,7.738984495801388,2.637063132276202,6.152614791198295,4.618569444429605
sub-P005,Contrast4Size1,2,2.8541309674440596,2.018456518462855,2.615352382069954,6.445688834236804,3.573219363460624,5.415461552568823,6.663408658470081,2.8941282247671642,7.379239202658545,9.134299007623065,5.38631288427519,5.499571736660831,4.462655022602943,5.141396433451359,6.61745153485227,3.7843110153997506
sub-P005,Contrast4Size1,3,-3.318308573628374,-3.1846121174737423,-0.7136875303175454,-2.852703214968898,-3.974449152993408,0.601849444583281,-0.36739791087940976,-5.348617206358851,0.4843519609770824,7.75638572416687,3.8052366448549737,-3.82871973028518,4.542000823149267,1.3221014579830745,3.050606523150387,3.4290967969881687
sub-P005,Contrast4Size2,0,1.0578524570852017,1.7000142471181556,1.3525464356653574,1.2479646681343133,0.9958292964969298,-1.0332215065466621,0.3397930217126241,1.9354106373067859,-0.4672434749328597,-3.2910334361035645,0.24321348751216385,1.1760133430503485,-0.3991852322284733,-3.048968166074456,0.061397782285487035,-0.5363713193788386
sub-P005,Contrast4Size2,1,-4.209354571723963,-4.1379561254866,-4.38274122989205,-1.951761634568865,-0.5696655625127207,1.6810645955649608,0.09577512383973874,-1.3143520426172097,0.6440388119770262,-0.6315161164184462,0.5428749598343479,-0.42711957501549924,-2.112826405273322,2.17870926187304,4.612870105220174,0.14677118065237968
sub-P005,Contrast4Size2,2,3.397254468856174,2.5894113337627953,2.683747816416901,2.195294217588375,3.669597155466608,4.450454090796205,5.367701029699896,1.3979238083487655,1.1223541912361132,4.816571466812528,3.992405834955318,2.0715639087799835,0.1567477929405845,4.206498798672187,7.491291683405125,1.684652029722701
sub-P005,Contrast4Size2,3,-4.1594417546807145,-3.857261102224909,-1.9556277518703338,-0.6119678456719793,4.44413273154962,2.596236537402972,2.6701505308681197,0.6986034397332856,2.6358095980687075,3.1845507300674294,4.069315291663597,4.693299814856012,0.7565780089624152,7.789874230005175,9.104352818003253,6.019827796185247
sub-P005,Contrast4Size3,0,4.400282647895123,4.532841140651472,3.5656662337960476,2.339964435502319,3.439235371596425,4.159346373560768,2.8516937366346324,-2.1190715233377593,3.4339125620504123,2.1640549446458697,1.7094392088959864,6.971954391133773,2.6404691397173163,9.765530214693287,11.615474646076136,8.427008431277457
sub-P005,Contrast4Size3,1,5.475669797315649,4.029703474902724,2.2073467074325706,5.8122624891985195,5.743658399165935,0.024746853487461994,0.7657724838623721,3.635681956139435,0.23702721215244588,4.9968141977929195,3.8930788816369715,7.910055901004826,6.970507479455934,9.723705592543562,11.794023600356907,10.60925674846041
sub-P005,Contrast4Size3,2,7.5274578104838765,7.068325458634366,5.775413134440802,7.368938009384874,9.698833846960195,9.255590063175852,8.838517355442084,3.8006757592214573,2.811917726705098,1.7679013435172446,5.222278411589172,0.4166300452436638,-1.6442864520904017,4.575053120100613,7.893231157403651,5.31230155792099
sub-P005,Contrast4Size3,3,9.38231682847652,6.201414548976409,4.427543984685033,6.960434883828438,9.632847881344107,1.2823287730636332,1.2110332718835906,0.9678484049575775,5.618236824248645,7.221772438056885,2.313323825508565,6.789474689980587,7.16804547135887,11.525171587308431,13.054004517502326,11.021011595093373
sub-P005,Contrast4Size3,4,3.0759524418454856,2.7310363227215246,-2.1992826327708466,5.462682428465849,7.702372998727433,4.3528513316503465,4.271194576951485,-2.5108952337048724,6.558371782107565,1.140588156770042,0.8572640325940211,4.344219325033186,0.15366884838051525,8.47303070489693,9.818027237653524,7.694554087447397
sub-P006,Contrast1Size1,0,7.713860353755426,6.6745615993475305,5.063933132697437,5.746905802115282,6.082147538532691,5.452153613766217,0.8667569546728098,1.8076216877136457,-5.602834344668071,-4.5445171894723595,9.14683286971009,9.571052490562908,12.342454951677661,13.647616510070744,13.620665076135785,13.388302274013535
sub-P006,Contrast1Size1,1,6.770676665384324,8.001567126620886,5.231537342899434,3.1174300803214123,5.366895706712973,3.806333248617605,3.6320504133729536,3.9154040887523003,-11.220315373328615,0.2752579981845964,10.31111407232882,9.889554927216713,11.835101029244102,13.008596483853804,13.79703752161512,13.706743517470308
sub-P006,Contrast1Size2,0,5.0795307017829305,5.921972519322156,7.626558083024758,2.994153300876639,6.009153870489865,7.407346789716737,6.615086180133794,3.9085900128312456,1.7006497360734454,4.8643954713015365,2.5660325209530783,11.232113395824602,3.490825368732251,15.243754543638719,15.306320433737868,14.013087295226041
sub-P006,Contrast1Size2,1,3.7216953508129365,6.183443853208432,8.372522226559184,1.47258183300739,5.722882628549489,5.791724663263195,7.5026688003613735,4.743437343772972,-2.2612001402978104,1.0937049585156124,4.620936510749497,10.327439910914196,10.12232047623814,12.664809791935179,13.346282394182733,13.438037461130612
sub-P006,Contrast1Size2,2,7.357841907897594,8.161478952150773,4.7590415559897865,5.940034452580458,8.338790551611853,8.990106499096125,7.3786303900857995,0.7756570812165959,4.236381291917522,7.598696811624536,-0.7172834654512759,9.482344226769312,4.9933191972656195,15.372940918949713,15.230176225240719,14.536782190331095
sub-P006,Contrast1Size3,0,0.9546804292335708,3.651790511888851,5.266406348225838,-0.31177365719182715,3.6041841054713615,7.978231729075352,7.197408894905122,3.5575073763823095,1.059010824494904,6.959160157507349,3.876391826874656,8.352703291072244,8.481918707358316,12.639748889401115,13.748938072070771,12.86909215198866
sub-P006,Contrast1Size3,1,6.453450303136351,6.3895610915905365,6.272570673130925,2.7122770408130714,8.173452623425067,8.06130887442944,6.441003985605707,5.193679769644594,3.1686082876117188,6.31542341885921,9.063481332916568,10.825941346167953,10.279089985524859,12.968666047968656,13.710451641295924,13.304484365982507
sub-P006,Contrast2Size1,0,3.860737770565668,3.1712780415697868,4.043381598571464,-2.8986709363572034,2.911037709166373,3.2659463432912945,2.9167731563946413,8.229942191106629,3.6920197398737296,5.8619610369477435,9.426510488891992,11.917119858231047,12.652425036663802,14.084348854422856,14.07533627342698,14.87574951531708
sub-P006,Contrast2Size1,1,9.080596030802958,7.787445791000041,8.767404204655959,5.359237395650705,7.808118147513739,7.008115490872542,5.042144478450873,4.581382816701654,1.1567521429216856,-1.7489203722461353,7.533642114387316,9.53030481627655,10.302987250719433,12.900991441358492,12.285970213387108,13.029572353112112
sub-P006,Contrast2Size1,2,5.574563094624389,6.994622690155337,4.7425606446599105,3.575428499802267,5.079823388871394,5.799044445261924,5.125574508103405,2.9259418719809243,-0.8679397606990615,1.6688055846755856,3.501577505067747,8.315300847089608,8.40267888310347,11.966368807198597,12.613521140327144,12.341744500274912
sub-P006,Contrast2Size2,0,2.801296462500779,2.785413481217765,2.031455949714419,0.24580966196121545,5.650720779605995,6.405527937833558,1.9843460325800808,1.4621883258141786,-2.548053026107793,1.225248260695598,-0.7201303516108076,7.438740579447098,2.109018394147721,11.170795278835419,11.169227031552511,10.253241992505215
sub-P006,Contrast2Size2,1,4.898018535748332,5.083958901556647,5.5307637836331836,4.767497706210392,7.025844155644197,5.504243462978514,5.841343932440079,7.4674397336590665,4.811205731205433,3.387836376197822,5.244963016830123,12.384143167115568,8.101886512403965,15.124711131812427,15.0420028826096,14.99376396223144
sub-P006,Contrast2Size3,0,3.5508371193742088,5.093482862354481,4.134084510420877,4.271458196939414,7.033616879396326,7.727392988254388,6.387149729979274,8.397581583630826,3.9917662058885037,3.090424468820405,5.950530794926848,13.017354349876321,9.663648731037183,15.661466479514804,15.624402994861999,14.4396625205749
sub-P006,Contrast2Size3,1,2.432097681583802,3.4705110207886154,5.749465143745055,3.7466125254723663,6.378984260688451,7.046706077168867,6.268829292309443,7.843852875988059,1.322563837375402,3.3159085298408613,3.9153821699293587,11.674803589581868,4.6671926546581135,13.653148874187416,13.531058608265045,12.087125342753344
sub-P006,Contrast2Size3,2,5.2294786075855315,5.770894907710157,7.0700191163425385,2.6461476271970685,6.8344365474356366,6.319546286919274,6.388425546059329,9.802644808566498,6.17972061224891,4.288510169397187,6.584912156935788,12.025228013543751,9.176843090296842,13.870676454258037,14.373359717957587,12.989961713217264
sub-P006,Contrast2Size3,3,1.4345767176068276,3.2300978344068145,3.992354498132892,0.7726113958478736,3.1914698811737323,2.9996820357913685,3.6855500406048924,8.090055994901473,3.5015158460714186,2.0977745440056363,7.296204587698705,10.84681302428149,9.220953000350946,12.248235117359481,12.967887927828732,12.027368599751343
sub-P006,Contrast3Size1,0,3.2493075156285083,3.5462788020228606,-0.8296086621023051,5.328103219637211,5.986618190295038,6.496810402818332,2.770141148048835,5.126472659397439,6.167868588138045,8.206685994574034,4.128442403376076,8.166711531245067,7.564768286896659,11.905705412187652,13.056295315461572,12.179947219176078
sub-P006,Contrast3Size1,1,0.028636804657266656,-0.5341940137533546,-0.6559207459997217,1.024815926083547,2.9645971405374376,0.5288897752816792,0.979783188331922,2.6714116611683436,-3.094367073754537,-2.2059021933688214,0.9521239999284704,9.022117525127916,5.950190869623214,12.208791585079604,12.498135104938129,11.24868623802337
sub-P006,Contrast3Size1,2,6.1341610142254215,5.506519329632678,5.585309267177212,3.655659105551154,6.2074001241884496,5.939984337458196,3.505580872725833,6.83360751978525,3.4889827033000587,2.0605983051205103,4.930511924082087,11.239063874847737,6.287313560273598,12.680389541574746,13.306960354962127,12.665290894985944
sub-P006,Contrast3Size2,0,7.094302543659517,6.488720066840646,6.039910491997212,4.447933693492065,6.196079635333264,6.146716348677997,4.030767655102366,6.523537621531073,3.291334901862461,2.2431321636227777,3.6775797426723518,9.521538386925275,3.444388098646397,12.841650446292387,13.082957562877764,11.537695415574092
sub-P006,Contrast3Size2,1,2.64378613454257,2.5377610575217737,3.069618137255634,1.3502493435139624,4.174368308834703,4.019839712334213,4.512028892204446,7.900750530404248,4.990090588710167,1.1991681582974594,-0.6988995430445408,10.33901773071033,3.9277052712917664,11.66130579806585,12.602229801931284,10.884757591387977
sub-P006,Contrast3Size2,2,6.838705523091139,7.866632184025171,5.334722635651864,1.7529566605087257,6.918183473158911,7.565475179617919,7.4833828679486505,5.783546072673083,0.004372508769674418,1.4831594655524105,-0.0732412879525132,10.93221647321512,3.714736472644579,13.981537907639956,14.723063293264927,13.1142276069907
sub-P006,Contrast3Size2,3,4.493285569106884,6.645593563117949,8.145077403387502,2.427565262461344,5.16507945844876,7.258516017131659,8.800816793225417,5.676915546045812,1.6731468930136857,3.7146197599891155,1.3145719899033326,9.542361572662596,5.203215586431637,12.140942580246698,12.818046779436177,11.892321468527847
sub-P006,Contrast3Size3,0,1.1020368548997515,2.9719512904689105,2.8454652475722018,1.946264946358023,4.176299407473276,4.932730406181574,3.621576744505054,7.108191829193614,6.914236781453865,6.5006580339569275,5.213727770770744,11.02478029771894,9.867647750041863,13.714388693838824,13.837082019710135,12.898827845572827
sub-P006,Contrast3Size3,1,8.619915050296367,8.828045128458632,7.244838275548463,7.768239953687769,11.562920069879457,11.232664271382136,8.924502860058347,9.144394178883546,4.424784515894657,7.140389399016915,5.4493553718917696,13.091440036539868,8.84197239998148,14.86302905343041,14.986999835399843,14.761818975800542
sub-P006,Contrast3Size3,2,6.273656899392275,6.953089847169373,4.031763178701556,5.502777039339312,8.683030434864245,9.72682046788886,5.397084124247664,3.7688542795975777,-0.6147384737813367,5.557073681146742,5.787416317720213,10.287452167402748,7.868426018797238,13.137461158548618,13.374240436933672,12.399512282886906
sub-P006,Contrast4Size1,0,1.5753748648833326,4.723994852490885,6.030440120356152,2.2908614235200377,5.358027408438417,6.2220040511329655,5.517692177050516,3.073780244500877,2.9184006434882925,7.429140431503082,-4.440544582278374,6.930394693378817,-3.729742558057849,10.433304256212736,11.608407546994258,9.665194859382684
sub-P006,Contrast4Size1,1,-4.2988152462710545,-5.595939996263567,2.946676073522098,-0.2391279374000026,-5.526169677258154,-4.445457377984187,0.8073226545537486,4.087117557992574,-0.6101093585521565,-6.131887832369147,4.038344430233113,7.822526804016606,6.280720311816129,11.318697814721958,12.341718969600667,11.409270539262158
sub-P006,Contrast4Size1,2,4.308473609986886,3.9716356892800304,2.526313870059673,-0.3265757808374806,3.84326116095578,4.112139499277273,2.5711806193532376,4.658042235006365,-0.11216036756141717,-0.2855284173968349,-1.1765990728409212,8.526097562653865,1.8033039063490302,13.270405565469282,11.92427523765122,10.351762644304808
sub-P006,Contrast4Size1,3,0.9816852138633505,1.9751726317263767,1.375808585379592,0.8397560584545415,1.3230124346995165,1.3095743265193334,2.214142319841498,-2.7221562144094196,-0.8470260358337554,0.9033329599096871,-1.014557722858402,-2.294575183088063,0.7422224382384632,6.473427922157904,9.273410002465528,5.631468540118619
sub-P006,Contrast4Size1,4,0.5913681640402686,-2.003114073756584,-7.77524870529794,1.0010258707671342,2.4437095475108053,2.776125693202686,-2.6421703727033687,3.187334339549996,-6.432692462884838,-2.643578585482131,3.971748148718776,7.776735459565435,4.679805237966499,11.116979449678295,11.49811403557458,8.713312414350494
sub-P006,Contrast4Size2,0,3.0789238041444493,3.1145300692044287,2.535458943811154,1.646946657337822,2.1595919443113742,0.8555795413086371,0.3590417997755664,2.7564338291454993,0.650586505457341,-0.21597124882939217,2.0231528740566755,8.072720550824327,4.35185915064776,12.64265942239005,13.572621231138061,11.682065718436288
sub-P006,Contrast4Size2,1,-0.7996803716922946,1.4994584335810555,-1.2202884440534059,-0.860365555272667,-2.252073452764897,-1.782635069410789,-0.9526511279509214,-1.9127219042714159,-1.1932237877946281,-0.787832551878936,-1.7057197226593177,5.096431991975208,1.6940535146806934,8.35179347939336,9.17520371342488,7.474050333687234
sub-P006,Contrast4Size2,2,-2.7045075692448792,4.057661548165833,4.789569755160663,-0.7510355294073452,2.2401371529200658,4.1942088935236574,5.486212783922185,2.2561799592527714,2.378225323306725,1.66610812129485,1.6132211446855502,5.9694320950766935,1.2862553421707188,9.936192000216021,10.197391675817286,8.276977140674141
sub-P006,Contrast4Size2,3,1.0958788912200608,0.8383792965745609,2.771821087804221,-0.6239666226811134,-0.24772451078795,-0.5516324275929148,-0.6756996592068183,4.809949077653973,-1.6905639270340647,1.6792193214511597,4.567719354693478,9.6322091917667,4.034070155294053,12.33097326085808,12.541244212710714,10.282703379196843
sub-P006,Contrast4Size2,4,0.5159316214408108,0.8591079962625948,1.1031814497331192,-2.139812442425876,-0.8305187599741494,1.6008724506824552,2.251093218882648,0.5799183534146419,-0.3172742186311,-0.130672146593277,0.07659292426986797,5.4555670930054205,-0.6376891076794196,10.733661266069257,11.511508912880466,6.337503044257416
sub-P006,Contrast4Size2,5,3.6023334462563272,3.9401398950518534,1.170798539603587,0.48551983731718584,3.806003752017766,5.019808986160755,1.928831982054997,2.0640891357422837,2.6373519193905244,5.1173498496235,4.017138076512376,6.012310105549248,4.011446517577257,11.275687014371346,11.36284374674441,7.634350901057745
sub-P006,Contrast4Size3,0,6.1879339700279665,6.211906991908982,3.682067598904681,6.498705547258128,7.315907004144666,7.023401958243337,-0.612954211445325,2.6749442626061053,3.4663487345044386,-0.5936874799249519,3.4405180475494723,7.942882567804573,8.544831667890762,11.93213890208067,12.973465703421603,12.120172686802988
sub-P006,Contrast4Size3,1,-2.046971516075772,-3.5876362789113414,0.7426035763792381,-4.895313932857509,-6.933798706760154,-3.478019540218445,0.8105878132000235,-0.7370671337267738,-3.6221821801223735,-5.446958895100387,-2.8553440112932704,3.147479961385079,0.008328798571486145,7.509604798925241,8.858634147128626,6.948469283860936
sub-P006,Contrast4Size3,2,-7.622028130356564,-5.892648261815041,2.6663910064143788,-5.91069420328762,-9.406338921856497,-15.459529430667345,-5.560052910638968,2.6629222298964965,1.1812102798623356,-4.077067880414546,2.728888388183435,6.357471768838419,3.5422915434124533,10.870661820107328,13.148416136008514,9.740181894414096
sub-P007,Contrast1Size1,0,-3.012376962056664,0.69698085177919,0.6720875402070552,-2.2175970837284966,0.8687042187193592,1.1703454441107264,-1.1370237792922824,,-4.583699577157658,1.587141692205112,-0.6147165324034116,-3.6878103825750443,-2.785427695823332,2.256110651016364,4.102841453962532,-4.152806245534572
sub-P007,Contrast1Size1,1,-2.6910264552947556,-2.263416425686739,-1.0616563577362754,0.991467763702006,1.5355805226747707,2.354880621053947,-2.4432778919138483,,2.9596161517103763,6.858896352557463,6.287597400187776,2.304364883196099,5.5437164810734245,6.8700381461480795,7.657765485118363,4.088243651489462
sub-P007,Contrast1Size1,2,-0.7274902175468463,0.12989709271781608,-0.27606491411922945,-2.4766501743191434,1.5818764560850915,2.6662371400162073,-1.776582088649412,,-0.975466315669451,4.676476315595391,6.606032482820307,2.1522934747891354,4.585096359184852,4.373472941595985,4.7173772704968915,0.3258674084354863
sub-P007,Contrast1Size2,0,0.09090985002500737,-1.6496367748468206,1.6045000141638246,0.8347982870705771,2.5029293738992213,1.814416613608783,-0.07417234035353439,,1.9054363359382287,5.355920721404228,5.91500176568815,5.874037731866836,5.431317010241788,10.200556626087774,9.30150429444711,1.7459368598959393
sub-P007,Contrast1Size2,1,6.185737588083422,2.767659474027229,2.2825663084089474,4.320344200219466,7.674009148206268,6.568526082528709,0.9894216272463998,,5.117671803570488,8.91167247275169,7.173209746193601,-0.6772184863189028,8.476144721498455,3.1885898962076458,7.425430255427332,7.446798607627374
sub-P007,Contrast1Size3,0,0.9883390875916264,-2.1377874017634495,2.92583395796844,-1.1385368324768905,2.5657265042605815,-3.380787527252862,-1.7803060098470596,,3.412072060993258,3.598566052476724,3.8334691275926747,0.48743731382249733,4.69007596200989,5.508333031433214,6.920561522562222,2.4673782796222206
sub-P007,Contrast1Size3,1,4.144367292772591,3.8079018079925397,1.5774490996718662,3.8525152170261445,3.9853395703096437,3.546066216072034,2.316171849093979,,3.914447376004385,4.466333004132397,2.8743114646656625,6.5449829537985025,4.662359518462855,8.715194779253943,8.137084619784188,4.58650008131691
sub-P007,Contrast2Size1,0,1.3548838628159243,1.741199015090953,-3.815719731533414,3.1149081690170104,1.372542784725844,-0.7457546738833204,-5.875313018247304,,4.32402115341861,6.9574861864066815,6.605328851898528,0.35457727218823354,6.618370262213404,5.895036692446881,5.424173477282983,2.01301802709097
sub-P007,Contrast2Size1,1,-1.5707283159998715,-0.23281644596289086,-0.8545282859625969,1.9631719878328013,-0.49248793967462956,1.5461914668230876,0.42349113834572855,,0.5841094458070771,0.018031859569307043,1.5412756303194968,2.213268534088951,1.3088443984453446,5.765304590062289,5.618948970930103,1.0227299802978522
sub-P007,Contrast2Size2,0,-2.221444808634364,-1.8153592364702467,-0.012151230390689466,-3.3471251814435665,-3.4932111891094646,-1.6064174881876079,0.8479001707973005,,-1.3881349624702712,0.8599318015104753,2.758206303972205,2.548433700297413,4.9172594046201565,5.442254409273163,5.97821568424605,2.515498850690379
sub-P007,Contrast2Size2,1,-2.3844258508751355,-1.79781119117174,-1.3918856950972938,-4.861815740966621,-0.9974187324161815,-0.5378134041133933,0.7187418845707252,,-7.97318626975223,0.9831357622685378,3.7274530707154794,-1.849485025794729,4.852412189559704,3.783170657039583,5.422640998574347,4.139358619008083
sub-P007,Contrast2Size2,2,2.102791911870886,1.6102304583352467,-1.2980027595337753,2.694441883951585,3.888794705241268,2.5248364700470964,-0.7099209495563579,,2.500350754293713,4.941450086947427,0.8735888306842634,2.767500951544803,3.7207169780108877,5.868429436982867,5.061563581404277,1.137847667785083
sub-P007,Contrast2Size2,3,6.052318954631226,4.820756208385822,2.6476487660576407,3.428939275482277,6.3453008554019945,6.009710613872152,3.675982645788965,,0.1536457208211762,5.90919216766974,5.836835554066426,1.0447337130446512,4.895409953037747,4.947070495304695,5.912922574202279,2.7523101379385007
sub-P007,Contrast2Size3,0,-2.7522125652235148,3.290773690112185,0.8911408692817506,-6.474932252500329,-2.4645182947733644,1.5125792990143245,1.823859357651255,,-3.0020535242662927,-3.3997303401130456,-2.270876892004492,6.539464293845602,0.2439575867262189,10.820577807947613,11.228625893335327,6.734801368286151
sub-P007,Contrast2Size3,1,3.341532642621286,3.3950122786531676,2.0832273020457217,1.4910536347463563,4.853214788596156,5.777605805452078,3.2924654776123803,,0.18814394559318598,5.48427510205298,2.9834405425248796,2.9689160244602943,3.9466795578748517,6.710389785819599,6.193557502887707,-7.063028176866791
sub-P007,Contrast2Size3,2,-7.0862476985731035,-4.311543639961362,-3.111051882750233,-1.7498226419706173,-0.5848185457988607,0.3898204738547657,2.094662478768944,,2.967818495618615,5.628226425173804,4.90691128749064,3.1722684218747244,4.04365342646052,5.682826939732704,5.55412151629749,3.0540666796883205
sub-P007,Contrast3Size1,0,-8.664630831268154,-6.664704388643799,0.6970713411347278,-5.178225557876765,-3.9979640705725945,-3.398536496400874,3.3478203920508953,,-0.944062537716142,1.4268563493099493,4.3485779114161005,-1.5848799613031763,4.458695401445004,3.2676643657148348,4.171653024818064,1.490774364740475
sub-P007,Contrast3Size1,1,-1.244099771627753,0.05146452642882017,-3.8044621945655677,-0.6002775179019448,0.07374332311651122,-2.8646318880204586,0.06985800776148728,,3.1041824765373596,5.28185937616838,5.274069237075213,6.142821683537816,6.685665326149616,9.284469617240793,8.673556607026937,3.4320383791375257
sub-P007,Contrast3Size1,2,-1.3603092199791469,-3.3433788617179565,-0.4056369549030838,2.195352390531192,-0.7456173515618271,-0.6002143532748385,2.1064784879948903,,2.832567819400467,2.254520618819917,1.9502144361657812,3.0167950356973035,1.105859984507138,6.874916711688598,6.4119707604923075,0.05538805323564411
sub-P007,Contrast3Size2,0,0.8743887746267986,2.8655149426467768,-1.8301020960697276,-0.7238098130304192,1.780413061889095,0.9546246042993262,0.3763011220419382,,2.735765302581663,5.149917211338292,4.079074302527436,2.9463030216824073,4.325892963946714,8.950820145638106,9.265161187183104,0.5157453946052357
sub-P007,Contrast3Size2,1,3.14733469833529,2.853602047703532,5.826782801169276,1.1502985934299257,3.2719484261279295,4.492314632902864,2.897546867347711,,0.6748801036377163,5.409107509635951,6.3335068673697155,0.37132286712774887,7.145873516817964,4.566501231104106,5.1464256140604725,3.42513511837022
sub-P007,Contrast3Size2,2,1.8354341893095116,3.125359956966501,3.026273219008556,0.32398746685183305,3.3758636806367353,2.6049552605724773,1.5651497118599824,,2.777013734144675,5.32635168409637,5.372150649062226,4.291298740937069,4.796083900520517,8.15450252547541,8.059086320763058,0.13987250371556212
sub-P007,Contrast3Size2,3,-11.943343462589182,-6.089274484410572,-1.161737197606038,-10.590548868896843,-5.191635665213693,-0.4914019521424786,-2.6726772649027803,,-6.509334711948704,4.879268327688312,8.023291584100335,4.602155561319307,6.583312325622291,9.861112634531189,11.325429255666169,5.849358253309946
sub-P007,Contrast3Size3,0,-3.0701781938481663,-3.042895298060782,0.5146863872183491,-2.0944151431228217,-1.5433345888921701,-1.3369281675744196,-8.304355904066448,,0.6445341003720862,2.3267462427033196,3.2614009450005015,1.0708917377209182,0.3411382875538511,5.823870031744006,8.401056712716262,4.7839603465149825
sub-P007,Contrast3Size3,1,-3.019095366730023,-0.3802234365689807,0.3315971802688303,-0.6821630865982026,-2.625973973162343,-0.5380829654662158,0.5371897433216741,,3.5950326343384646,4.165308831201621,4.192099586850212,4.080537442104371,3.9370979180802763,6.162219521297879,6.462813818276577,0.7973277299831212
sub-P007,Contrast3Size3,2,-0.01010788370249541,0.09532313613407595,-2.9278975929481277,-1.363431930459738,2.3076986510856194,5.675850415531444,1.7825475151290253,,1.6819312742400223,7.9591682073856305,8.27250018770128,6.177745016112212,7.055547047168592,10.625006718196627,11.900397754681686,6.710862442211121
sub-P007,Contrast4Size1,0,-5.311746256766009,-4.746708089243426,-2.375902151380231,-5.505258697069577,-4.4423135942195815,-1.6399835933698446,-0.03704366870832625,,-0.1322940884152057,2.012253720574129,2.9980668851087877,2.193098234264889,3.232659857037421,5.528053213720018,4.974875637931956,0.7842273862786522
sub-P007,Contrast4Size1,1,-2.7456101927205543,-4.661231383190404,-0.30637907689597077,-1.242803678930504,-7.615118718625564,-6.738231188561877,1.41121843680099,,3.4204708547056777,6.371651708858276,7.658560881363003,1.5505821044950143,8.45416877889608,5.80450926591343,6.415069772630093,3.1399538065398547
sub-P007,Contrast4Size1,2,-2.825386552657039,-1.015479105238857,-2.2601156426220284,-1.6917046320534934,-2.8497210149441194,-7.2279263785618,-4.1040027645991985,,-1.2895980576880768,2.5938359885255085,4.7776217411342845,-2.9458916133017636,4.491322516923522,1.364863567546315,0.7784489641220366,-3.867675433985651
sub-P007,Contrast4Size1,3,5.240222166754368,4.218870467356166,6.180907937419622,3.6503728630404053,3.7764099742439554,3.328808427676247,3.381428950698069,,0.08148672787538741,-0.16184127743806676,1.6612886235834712,2.9695773300599053,2.060739021867697,7.443475812748216,6.778942407613997,-0.8472031335961578
sub-P007,Contrast4Size1,4,1.8543126954931246,1.015870437255221,-0.002793410494940601,2.4820345968961353,3.913677307537386,2.7166534704538066,-0.3948762655775957,,1.7979716523454445,4.171917387084106,4.974858974622378,0.17875424788922656,5.337481379268464,1.021135090874497,-1.470331163918754,-0.0116571446359232
sub-P007,Contrast4Size1,5,2.109948293393395,2.7820329891543927,-10.607072946092797,0.7569636887365663,4.031379674097394,3.4708676573961967,0.5788430627629388,,0.6916317300143499,5.811334090209231,6.354542252421761,-4.9328718770799975,6.560747505096333,0.32694138230666836,3.237023370427143,-3.258368564526419
sub-P007,Contrast4Size2,0,-7.692213340608987,-2.7981134188269827,1.1147680083671987,0.6566452270587417,2.056127762849143,-2.575377671144594,-4.480012954716304,,0.6983403820294743,4.202188330334486,2.531937148050602,0.3798052275544088,2.0746048176777716,7.810357763889423,8.782940500298974,2.937826746487951
sub-P007,Contrast4Size2,1,0.6195383321178559,-0.2444346605120063,0.8777691483419645,-0.4114616347030029,2.958134383720867,4.146342432770246,0.48005142371010395,,-0.9041913509374268,4.812484741238398,3.023764148754107,2.4511664731046623,3.855998925373111,6.909919758481138,7.190817389717639,-1.2107623751334238
sub-P007,Contrast4Size2,2,2.8141944520913995,2.6708071377364524,-0.6850310104601427,0.5227827930756836,2.75143936041977,2.558891716158583,1.7966079293559964,,-1.0122727042751447,5.360190110348625,5.717851470915533,0.18461150821099565,4.813582618416906,4.875779569321122,6.195795966121583,-0.5185177679082308
sub-P007,Contrast4Size2,3,-1.1609108705246898,-2.2461842185164054,-4.010810803318766,-1.3024463923772398,1.9134126794319661,1.665477354702651,0.17689393312929264,,2.4380197760537796,5.738215112861923,4.043380498178909,3.8738505230679996,4.933579875130406,7.347438999181353,8.483992180155429,5.709700503794048
sub-P007,Contrast4Size2,4,-0.8363066217071474,-0.21202241380335157,-1.5288422291371393,-0.52763955793471,0.8065548748848637,2.252116225723029,0.07841472497554466,,-0.4395145365816073,6.775914750361867,6.755861491318193,2.011879142558886,6.681889501964843,6.935815862230031,7.725392594475041,3.5355527660973634
sub-P007,Contrast4Size3,0,0.25571744972911015,-2.170216510695218,-0.6126701350817595,1.7010332317846022,2.7359583344210665,2.5085757759382554,3.4441688848485272,,0.050348790496085725,2.420880324722955,1.1564494551944144,4.187716312602665,-0.20613106539844192,9.68889809118681,11.19751392497815,7.6836805034217805
sub-P007,Contrast4Size3,1,2.8503667177468346,2.098160409219985,-0.9183109350995605,2.753750115295338,4.073650145705388,4.479057851364014,0.7093126344337763,,3.095394768320734,7.152100606258921,6.039779114958375,-1.0642301547900739,4.861182915545303,6.276816705851212,8.533566311353894,1.1639355510728846
sub-P007,Contrast4Size3,2,-1.6121457654688445,-0.9453678615670735,-2.45360014302559,1.9293122800886562,1.9012628804941556,0.3225702654331661,-0.5452224265452081,,5.7227760607500855,7.095075278981705,2.83419743177539,4.026388460868157,3.3793881257687657,6.98485695908075,8.088795792590483,4.601797563375609
sub-P008,Contrast1Size1,0,4.6174965364286855,6.351085686073899,4.879764622665245,3.8654638384927535,5.070068111395774,6.8629155921656775,8.296052463381487,,5.774317465618262,8.330260014482215,7.348378555331944,8.467417593502278,7.503025604207325,,10.856796406158278,4.972188107596162
sub-P008,Contrast1Size1,1,0.14301798213790676,2.212603069407368,2.5998111037512004,-2.3281560914960613,2.2280484464108103,4.208251340035647,4.155746831194795,,-2.056435020568854,2.1944069291253894,1.8529725465414137,3.4160406949980104,0.2562808046806197,,8.695715787158797,4.108992521253564
sub-P008,Contrast1Size1,2,-2.571035632717445,-2.01492692447443,-2.1807427520292983,-3.6384345382063916,-3.6396483630617005,-3.4095231020367427,-8.27839901025074,,2.2715855050916915,-0.10731730186856175,3.742178333459824,7.862570765999241,6.077246927950439,,12.759330499654817,8.893879417163411
sub-P008,Contrast1Size1,3,-4.421203433877848,-4.25988906903612,-4.8909210978647835,-2.6697392804213016,-3.0676678746769066,-1.39934926475094,-0.08528250511367735,,-1.9351969485769107,-2.932366556045949,0.7392878942416612,2.447602694854512,1.9119169828545912,,8.569477595771742,6.0138915240841495
sub-P008,Contrast1Size2,0,1.4690896993874871,0.5954398933030168,0.552033144203129,2.647266454254364,4.816434041006743,3.3198539598002514,3.8888142215756067,,3.8630004172451313,4.692643330870679,3.1900401628128305,7.088818910017613,5.4647774367716595,,10.267902347938406,5.81464930379299
sub-P008,Contrast1Size2,1,-0.5250824463566777,0.17731289705590447,-0.8609114279824371,0.26538397750254994,1.9166191989935517,2.0216838394194134,3.4348973256325417,,5.120502313409293,6.214828941013476,5.008312390189685,7.366021907438235,5.435459941464545,,10.627598222688995,8.526380219752971
sub-P008,Contrast1Size3,0,-0.7432478528897873,-0.6314257074298218,0.7753809006522384,0.12422237556750622,1.6798826207633168,1.107319971878285,-2.450639215285428,,2.8322293646141934,6.550420811421045,4.811363445718754,5.621266396777913,7.20537342004005,,11.554702051086716,9.283648925238928
sub-P008,Contrast1Size3,1,1.6759918805225875,2.136426099885447,3.586874454335494,1.4117933387023565,2.260535294510078,3.4410693785568967,0.32916428695553934,,6.0131589491988695,5.007794254402624,1.2747368400223327,7.175094551109104,0.8478233774268928,,11.271639493679913,8.346259100919118
sub-P008,Contrast2Size1,0,4.536647573284675,3.039498452149927,0.35002291017524045,3.2519461961891336,4.43771887592676,0.5154694013599819,2.377424368917211,,3.1627732594605202,2.591298229989602,3.073895441333975,7.242534131005613,6.339041626120919,,10.33362800287605,8.04948699045542
sub-P008,Contrast2Size1,1,-2.914409351241552,-5.5669964349201635,-1.0103974205018487,1.755882592291718,-1.3339018769235844,-1.7450112706922958,-0.786002751069612,,2.6599045362001688,0.4213548896103511,4.879752179770715,7.135604978378257,4.2351620629823845,,8.77980512142982,1.3894884195447328
sub-P008,Contrast2Size1,2,0.6722716960197896,0.6200897420032147,0.03434494039019405,-0.8415613079767934,-1.0851418848693768,-2.8628625404383667,-1.3844931791828485,,-0.9097670579437299,-3.205160884670182,1.4376294356993062,1.1352594416887793,0.8678095420788469,,8.177392028810829,3.0598169222774403
sub-P008,Contrast2Size2,0,0.7311888699873981,0.6723504095007078,-0.10971332960907568,1.1654245353737938,1.3850377293191696,1.4160494724425394,-5.083423968902018,,5.026322925971228,5.159761621986942,2.8646049523399753,7.039422627595266,4.256263492741594,,11.406122008172787,7.455188958447381
sub-P008,Contrast2Size2,1,4.542759919790241,3.9462849464495644,2.647856501387717,3.76357446021166,5.841724082703841,4.152217912948918,-1.3297083072196267,,3.11060475893219,3.4868962996981976,2.4316838702513106,6.628597140507772,2.218859797811568,,10.10787691304908,4.761102428241727
sub-P008,Contrast2Size2,2,2.191715405826648,1.3612976446469316,-2.3554262839993925,3.322113780744983,1.995486670244671,1.5972541319996982,6.098301784110879,,5.625882512995643,3.951661224973159,3.7193124278423233,6.41342787049506,4.699781516549864,,10.316233006799402,6.60578427061427
sub-P008,Contrast2Size3,0,6.068553072999485,5.594886879852816,4.634951666421115,4.610841608934235,5.05387855047709,6.34011862774769,1.7994892715970958,,2.638959227720243,6.193113683694795,8.184912335547224,3.3114070003114113,7.747596109991531,,11.453910778498615,7.759265844937239
sub-P008,Contrast2Size3,1,-1.6545539991059983,-2.4183115972126052,-3.5514730926721456,2.0360625558663648,-0.7985081412924494,-2.5213090903535824,1.421943967467796,,4.89118871707884,1.42058835472895,1.0130689650603801,7.946158781974791,2.1507520029173137,,10.745498685673113,5.651152192435202
sub-P008,Contrast3Size1,0,2.3205333898106097,3.135130606440053,2.1774751849408656,0.729020993132154,0.04559467304474901,0.8758331477313952,0.755497707595741,,-0.17779716392884473,4.073713828569809,5.169806417922892,5.724057285689229,6.745577278444239,,8.524692546944811,4.355710732501174
sub-P008,Contrast3Size1,1,-4.509785350655836,-4.2559705234360905,-3.5056174369020225,-4.901821250062614,-6.764928904911823,-5.053879011258631,-3.552126458493251,,-2.5567492563185334,0.39799498482451123,5.606182668810026,7.24186384250607,7.534220223920115,,10.174069773318745,6.539241494663513
sub-P008,Contrast3Size1,2,-0.18346014869707644,-1.9749789218587028,-2.633183215496693,2.2991586191923674,-2.312168035463028,-1.14736731226032,-0.2852271475691699,,3.2162441474408983,3.672395534903599,3.539980653661706,8.490588806398504,4.767764624536122,,13.359969866520409,9.29553755704647
sub-P008,Contrast3Size2,0,-1.5424112575900817,1.3205507378989212,2.075040189560312,-1.200563122793017,0.47071141861830934,2.46791009097898,0.43299247212651526,,-2.7485072317617245,3.2237983658616454,5.308604046472537,5.631803060750508,6.449134376338578,,11.634917927513609,6.606366559147737
sub-P008,Contrast3Size2,1,-0.22538522448202725,1.3959334126282472,5.134696404519891,-2.86716749282111,-1.9588109567095449,2.6645035925730234,5.803100553808615,,2.0068544373892676,4.6922399560480565,2.7316112983639513,6.676772377293391,0.7035764055505198,,11.463467749004053,6.32529819427067
sub-P008,Contrast3Size2,2,2.051660932391179,2.936132550167306,3.609581308941892,3.603521422984426,2.882060770410946,4.059619970896057,1.3502036366073868,,1.9762503885139684,1.2668527199988757,2.7424806295906965,1.9095164059521457,1.2474645918310177,,8.046823899787062,-0.15026395462379116
sub-P008,Contrast3Size3,0,-2.3834358613809035,-1.8016268028557703,-1.1963117124373586,-2.2450520651866905,-2.2775012030198876,-1.60891219989302,3.0180852473785356,,0.6975031316167071,-0.03912451554002312,-2.595212329202897,7.724130393400779,1.695191749329249,,11.098864941393465,7.371953610284232
sub-P008,Contrast3Size3,1,-2.0709161398570206,-1.6582086860690493,-1.5617942055861456,-2.891412510529025,-2.911174025309791,0.9009095022777414,4.014120478894076,,1.136091645134389,3.9432096989105068,3.5930025496207225,5.846704576550382,5.308725210975789,,13.522963544065208,9.579616757751683
sub-P008,Contrast3Size3,2,0.3633650630848218,1.6767426626390944,1.583212545168204,-0.8821294175495245,0.7800239777378936,1.2412255767605054,3.8969837412332704,,-2.3420787030683234,2.5744782791257084,3.5898428406249105,4.7677346022919735,3.2999149783915147,,11.016764612569654,4.771289557569986
sub-P008,Contrast3Size3,3,1.9135392225154915,2.987202049974397,1.5348871694257409,-0.2183198423585226,3.9322199141453265,3.1285234759398466,5.407325342351563,,3.2369197368157527,4.0786422160733204,3.9793894330134427,7.21895144167961,4.199251362769447,,13.187812647619403,9.258071495932338
sub-P008,Contrast4Size1,0,0.46589082562053785,0.6257081427505,-1.6446930035735174,-0.37065267089777043,-2.3224151439953507,0.23995966354978715,-3.9063401980438717,,0.015548636016704729,2.965919275733731,4.240974829136311,10.792165939395186,6.937519966698636,,10.09883871571855,4.128589041527052
sub-P008,Contrast4Size1,1,-9.008327601023414,-7.06440007180773,-2.2042327680541116,-3.91237349856251,-5.3803339802539965,-2.591284306957057,-1.0739820799061235,,-0.512574851240393,2.690519656817585,4.639036468763036,4.672919043224867,6.81755172654472,,8.108506732072875,6.07813611001287
sub-P008,Contrast4Size1,2,2.4754576231263705,2.670488856819178,1.9429953628052985,1.9835112755577036,2.781652515260895,2.8845223640118807,3.0041923513741278,,3.9601911219491743,2.6552995784388167,2.9549314149817754,6.807002003348161,5.16467890302152,,8.5507377698921,2.411472550138936
sub-P008,Contrast4Size1,3,-0.32294866794555144,0.6116522651752104,-1.7252714552175783,-1.8699735287086727,0.656254548936573,-0.3952386841818401,-1.588381095124201,,-3.2351661090361112,-3.1242557296535045,3.8660125411554205,2.8323268605699736,4.585188289608061,,8.040297389699528,3.0984903853865524
sub-P008,Contrast4Size1,4,-2.6082837336552385,-3.0998827595547973,-4.517479341095126,-5.274787971506122,-1.0319384567657741,-0.5204840102471078,-0.34453574999214254,,-6.948651435449213,0.21652632685362383,2.93328075621689,-0.4482800125517467,2.8080690398763144,,2.7007665053729046,-5.577902252508466
sub-P008,Contrast4Size2,0,-3.3023344141830413,-2.132607007244196,2.596404344510904,-8.13589263446498,-8.546456390497193,-6.229905704176303,1.290723608658574,,0.767572242354482,-3.25714455034315,3.985068443921456,8.124892924017825,5.901338129281709,,11.292890296835479,5.044239634967102
sub-P008,Contrast4Size2,1,1.8625062606644291,1.5998421699153105,-0.8789400057654841,0.698663475348063,1.6817562775504393,2.3209891479535685,0.23630386552436808,,-1.3046022557828432,2.210379537272677,4.871501342077572,0.7727562336816958,4.535928635965349,,8.979979630002504,-2.9032783843917587
sub-P008,Contrast4Size2,2,2.6679083498255824,0.8836015400159922,-0.36189205659586837,2.4769268952403096,2.041450032858171,-0.03774023526556405,2.5591183247755547,,5.464988319477926,0.8391103494580298,-0.9063258883844574,4.84941731259399,2.15551705484442,,9.608863392797256,3.366939791980413
sub-P008,Contrast4Size3,0,-1.5007848181614394,-0.03244023423243142,4.139747210411643,-4.271494751666628,-2.5186878078477037,-1.565090615740123,3.9424398792928117,,-5.72775404568335,-1.8218871395983107,1.3862322660234723,3.861792365998507,-0.3732487514981548,,7.855832685946234,3.2335402199802274
sub-P008,Contrast4Size3,1,3.2035479936527156,1.3758637810478855,-0.974260973699066,3.9487933161741644,3.5246967862898027,1.0432195858653555,-0.2658641002609719,,6.211982507366715,0.8228063078510353,-0.5486623680338583,9.22035716267451,-0.7432110126262128,,12.140684793849577,7.877708455511478
sub-P008,Contrast4Size3,2,-3.366318787921582,-7.020166332032205,-4.590767271375313,-0.5642901914240941,-3.203707719686963,-1.9835823136507034,0.8164114731661456,,2.7168145853052654,0.9927190432504945,3.812046676085135,7.942086820882942,5.563470678204605,,9.899926444261025,6.452268044849609
sub-P008,Contrast4Size3,3,-1.7251266243425118,0.5125557925545647,-1.5820528563003862,-0.6779862139192769,1.498867600529902,1.6974799991346214,-3.6467248075578684,,0.5511100939181797,2.541447359059856,4.329694091559342,2.5005705626048518,5.180424845687233,,4.892034219565918,1.702214525209592
sub-P008,Contrast4Size3,4,0.3160002726713351,0.9506933961976014,2.426986313689067,-2.055371630901797,-0.6582506136630438,-0.8422100224266803,0.38802637461670153,,-5.356255568407504,-1.2717275689760108,-0.30070191949562897,-0.34708973805490007,1.3231058274796628,,7.065930915252466,0.9932891872921294
sub-P008,Contrast4Size3,5,-4.5314343194170865,-6.81953664541971,-9.763219576163765,-3.164775690787287,-2.028994283482553,-4.781355923480379,-4.12635898503799,,-0.05690060285595429,0.7816786790170792,1.0015901913033383,2.139888689473071,2.3717262671145027,,6.590788148365554,2.5604804364403004
sub-P009,Contrast1Size1,0,-0.18975964850379767,-0.23034480141298852,-1.5652458092697628,2.8532871839769482,4.494819912735312,2.223244405003199,-1.225067774548228,7.150119352584793,5.718665903281463,2.100714373652844,-0.9660916653616397,7.803483189622319,4.082856005814856,10.07018229587567,11.309520602781205,8.417128699081385
sub-P009,Contrast1Size1,1,8.020679212815082,8.40228492494212,10.523673440282606,4.959042986315697,4.102163670311583,4.661890704601731,4.866123724108507,0.06021182566002745,3.0015639214671612,-0.9592127643122514,1.746237650789075,1.804248259629086,2.893120315585879,7.974185372356482,7.514026918550059,6.794311082802266
sub-P009,Contrast1Size2,0,5.108719506768758,3.184681159021242,2.9220509170697753,2.8517440626127093,2.592274893959383,2.5630261745882983,1.1962588206998115,-2.2398260916877866,1.9304244658342617,1.0394647206467733,2.8580309384848883,-0.0550968904146383,-0.6904665315902505,5.461671763836255,8.842189018907238,3.122719014962363
sub-P009,Contrast1Size2,1,5.481639374050246,5.305518238738667,2.050135657983341,3.306674136209173,4.600113721947042,3.6557228845713237,2.243803807237323,1.5024256089875896,2.174959028149522,2.923601244383675,5.543903757912657,1.1154227743594227,6.133445232625647,7.241070953651533,8.356094124285864,4.931580061392112
sub-P009,Contrast1Size2,2,4.10677491822011,3.2505269339879157,-0.15896890343315542,6.121282118506214,5.842322385432385,3.5800726127228675,3.5107838421157433,-0.3011481727477351,5.787129117076731,3.13586367514622,0.2625149463561642,1.6673266750845075,-1.9034352726333212,8.329373153887683,9.63410970937709,5.62328752406522
sub-P009,Contrast1Size3,0,1.2338800464366144,2.6840369390736107,2.861721366129666,2.1327203200002582,2.5979966114103443,2.4831762496382055,3.7752902135322137,7.6380530229240975,7.356243425616817,1.4441012169411063,2.18520394260973,7.713282430977543,-1.3404184410647364,9.789752106175682,11.402429635709916,6.324502472148822
sub-P009,Contrast1Size3,1,-1.7816618686951737,-1.6578240022777158,0.8892110800438244,3.342702590325106,0.36108798218463467,-0.6660636556559807,1.5873147920274793,4.5174973433194054,3.9118085948068613,1.1429091384105519,6.512908591557301,3.929033263202886,3.4247317325590436,7.285297150591637,9.464521801905018,4.046662687800534
sub-P009,Contrast2Size1,0,4.749458835926369,4.9917142414428,4.95452963885041,2.862860913071666,5.248473355838251,5.66343086944949,3.6169522413003707,2.3827492578631104,2.9455433621162195,2.0867724026689674,0.039559631709557626,2.8835651325160767,-0.6406556150929731,5.531160980400001,6.8044285321288225,3.4308776727033887
sub-P009,Contrast2Size1,1,-0.5046562038270709,-0.09238706934633462,2.189053387809227,-1.4685468754755184,-0.17810209884450984,-0.25141581485716463,-0.870850394266057,0.002723670429716599,0.12401845404074258,0.26462404888170704,-7.337534731080652,0.95396688521004,-5.495028038500035,2.732442868795099,4.897448657495979,1.6508805490672673
sub-P009,Contrast2Size1,2,-0.37458721034779663,-0.7317682054513681,-2.7990053203864034,1.5970424381140411,0.604834688397854,2.020780710452831,6.747920915259194,2.2383377735611267,1.5522870110586666,1.9380681361290877,4.76508558506067,1.1387159341624462,4.915236355270745,6.445412069695945,8.496816521965236,6.88621039909671
sub-P009,Contrast2Size2,0,2.662742275007672,2.66502900061432,-0.40372120568045966,4.753521797630922,3.324224762589677,-0.40813974584361257,-0.8433358520908157,5.560229746768114,5.650274937800528,-0.1878917817251578,-1.6437378061635013,5.686062239840167,-0.54856792396367,7.728184276976078,9.616517629244095,5.482249893480016
sub-P009,Contrast2Size2,1,6.965012588428134,7.982991969058863,6.498701963895805,5.486271475689609,6.117409681961794,8.175482242213114,8.274695727269103,2.1990772445695046,4.278219377287458,5.0723903875339165,4.836975906468043,1.2149855963823237,5.006413027643466,3.5613385247750977,6.582890821778316,5.738686259090523
sub-P009,Contrast2Size2,2,3.8482197185764804,1.4256851810155426,-1.2166901850221743,3.70673286931319,0.0825620719989911,1.0334659987583765,0.4796700077808655,5.035465497852081,2.98640918529816,3.059147172839232,-0.1181786531759445,5.338955357581749,0.7337456886876876,3.980278015532011,5.195784826153188,0.23985663295918813
sub-P009,Contrast2Size2,3,0.7279677518565977,1.1452677883700222,2.8768622019793577,2.7594416712845957,2.7273971283939606,3.072674753235428,4.956334211357705,5.378783601862233,4.145407659436754,3.8668490899036816,5.259267505923038,4.1469604237875926,3.532981832854688,5.680863827453443,5.815663563074363,-8.688817349956777
sub-P009,Contrast2Size3,0,3.9551660964435804,5.457406089806504,4.969998742732315,-4.418875711834502,5.740121733911963,6.100180203381833,3.6934887341710008,2.2856810631077447,3.9567744886019494,6.263982948722076,3.779443872090006,6.2643412293060585,5.548927179087114,10.814390579017623,11.283683234571578,8.463918506863482
sub-P009,Contrast2Size3,1,0.051106683456276725,-1.7502084036053764,-0.42013725414720415,-1.3839142143967786,0.04962537323062074,1.5985887323445485,3.3883918931877632,1.3764546921012377,0.3698902010246736,0.7875839133790119,1.9200966677855131,4.1683797444638495,-0.7290969064477777,6.365824857221733,7.866379514549856,5.414326374594864
sub-P009,Contrast3Size1,0,-0.43531997654726773,-1.8913961342093444,0.12987340735328334,0.5596893773457521,-1.0307511947581864,-8.92950864860696,-1.5432671300813303,-0.1121215353430672,-0.1374286758778255,-9.773532629264277,-4.738494301003409,2.985428328039718,-1.0784115498205913,6.677154381408295,7.544799404451049,4.548382679890503
sub-P009,Contrast3Size1,1,9.588305302965441,9.790729457838703,6.171418584775253,7.158345958521952,8.904614181303891,8.840031255010224,4.4245625778285556,1.862334442885134,5.224221087126346,7.644008708642293,3.97432224874468,-0.6990684948993968,1.541084299955372,-2.492031027634353,-0.36027710609491786,-0.9244461473108119
sub-P009,Contrast3Size1,2,-3.6152979736881004,-2.2595851215252925,-1.840593944387755,2.676063421433934,0.571730386485447,0.9188300693528602,-0.6096646185690359,-0.27091671726907246,2.1827321551854566,-0.26880781024055106,1.8224319590910945,-1.6071788837846328,2.1661608826844563,4.265546397349102,8.670846936100574,5.753249744012461
sub-P009,Contrast3Size1,3,0.2996194394819363,4.099729666221962,5.1889558483545395,-4.80024160298435,-0.15303751447530328,5.514037360766512,5.574458838746911,-7.0093050742576635,-6.468793520100188,1.0298373884072145,-2.7046563917748303,-6.430141413677316,1.420682249275068,-0.4069624226591442,3.4081430224533467,4.72297289254156
sub-P009,Contrast3Size1,4,-7.795124551657391,-9.482635127124954,-4.6122789060261775,1.1323681057992223,-3.2748635610088748,-7.805939278857808,-8.438907977284856,3.9602190169257763,1.091009261879488,-2.4119463452839045,1.6115311982175142,4.630014072398908,5.0377010365813515,7.9311187230704885,8.143298052530074,6.976480520714162
sub-P009,Contrast3Size1,5,1.9924000985662973,2.838958048449606,4.4136146626841075,-0.040068594354341354,-0.1795252539904721,2.538635807387006,1.3523589097808095,-0.5740453808931181,-0.1436770273289536,2.2330914137471574,6.077166158424886,-0.2070069595379227,4.61955144879188,-1.493072299185496,-0.5295455675850627,1.8711572270788634
sub-P009,Contrast3Size2,0,0.39829605221366127,-1.1396355835155714,-3.163962645162233,3.9018174809041497,-2.745701250075048,-5.8612167769489245,-9.547716487784148,4.333178343520858,4.687328758042228,-0.34991194360671285,1.0577016136345996,4.673861238475377,2.5878914700238,7.567110384271994,9.175773167937143,5.442804812575143
sub-P009,Contrast3Size2,1,3.4235080254232653,6.06205364523412,4.874277732871628,5.738147333587894,4.158434746733345,6.112816552411231,5.215194344166997,3.0929319508592537,3.9711219359262806,3.706800333406737,0.5618087645291496,4.028496664122398,0.9529909762308592,6.9015829261432575,8.983148043227054,4.914612374629793
sub-P009,Contrast3Size2,2,4.487128530018682,4.388283982341268,1.3825979924650833,6.083435920697351,3.3040539744032187,2.93324595721401,5.271814179915638,6.829423275733866,6.940779381295781,5.025508462986448,5.185755801410011,5.697199745393955,3.3353581434009887,4.573051749953999,6.011668414689632,-1.05016450949018
sub-P009,Contrast3Size3,0,-0.2631505299428067,0.21380344961178294,-4.17354097134907,0.7179797199212451,2.402602031804085,1.753561333988713,2.685155677116816,1.4801363914001684,4.2346295039730295,0.06510560113241921,-0.44357088713398135,2.78664638968619,-4.437782054387311,7.957406267303387,10.263030434524145,4.471414416032058
sub-P009,Contrast3Size3,1,5.53554528343403,5.370034365788987,3.534083411184344,4.326237350845347,3.4873192137809133,4.142426955671645,0.3918484810750624,-0.046157774961163994,3.124199033408708,-0.4144537719992132,0.11066386222690323,2.24642714487681,-0.5917054768331947,6.739172884112767,8.116785367459425,4.753368443874712
sub-P009,Contrast3Size3,2,-4.373579151552932,-4.7640161833789785,-3.7139826353028504,-5.499511221253829,-7.357999236159994,-5.4824537392994275,-1.8914604314995944,5.878906440945851,0.2954833412776783,-0.8597172914076454,2.420276069426171,6.5400042555265925,5.919371110476836,6.979735463818652,9.704495911444944,7.584034926313345
sub-P009,Contrast3Size3,3,1.63090868713935,2.799903118379083,1.2242689780960105,-0.5886185774647058,2.7633858148281645,3.3043191604925184,-4.3381658132233385,-2.4646512945425707,-2.0859429634217417,3.8809601199076056,0.24948168084038058,0.6318746646504879,3.3030892882107494,6.522964337725735,9.47998739926794,7.444895138642943
sub-P009,Contrast4Size1,0,-2.7955196731607455,-3.423584454657243,-5.100518160680386,3.370723510141608,3.180840998914337,2.3002308560253977,-1.2034407214946663,2.559866415144458,5.3060901027045695,4.995084125301172,1.4583112858614542,2.0977846804116176,3.3969763096797756,5.488546991171239,6.324666183439533,4.854184369191519
sub-P009,Contrast4Size1,1,-3.952141885925022,-1.791137875541916,3.432752149894434,-3.976181823785949,-1.507863435485648,-0.7155292148292812,2.7654614200242804,-11.100334647563454,-4.354638258966295,0.053852235441507704,-2.506623666190447,-3.8422296695900284,1.024219198430836,3.9535098859018696,5.833182380606772,3.4460173723961436
sub-P009,Contrast4Size1,2,-3.4802464545755667,-5.1783228706928055,1.8555783275039894,-1.1990179340477352,-1.8220211322740267,1.7866834871740838,3.267915645535699,-2.7525797069830684,1.9632107701547432,7.209320058294033,8.36818998516245,-0.8800226216911416,8.78220165101656,5.842701533648546,8.868471443168856,8.245583047670582
sub-P009,Contrast4Size1,3,4.242740738865623,4.308695309391669,-0.07634647730215036,4.18969738447574,3.9864577891829613,2.1466855719404245,-8.374642107311294,-0.5584074521598568,2.314539639706206,-1.6127715977769344,4.432273209878234,0.2882452373858486,1.9718991264370147,2.321160769723077,5.018960405797593,0.7291780062004567
sub-P009,Contrast4Size2,0,-0.17278178559915894,0.17854064627449304,2.227451766713461,-2.253245293941361,0.07930816518612666,0.7179631280873294,3.7729316998859703,-1.0902160006697783,-2.0511696432999282,1.4974414642348521,6.351107835159652,0.08751320713760224,4.05951319584319,4.696365323684068,5.952550233083041,-1.8343770950985294
sub-P009,Contrast4Size2,1,-1.4740893252693938,-0.7642771056054554,2.7420258371042525,3.3730882296929874,-0.1095494438161157,-1.2935123989045219,-0.4987664159063293,6.2548388524473815,5.064294255457052,0.2572442128123341,-0.17094697112844112,6.651887964975481,0.3562540078164395,7.031041363724019,6.909222801199272,3.344184272866614
sub-P009,Contrast4Size2,2,4.479526292931761,5.520378423106863,4.510761447465542,0.7953786720298697,4.374117191178535,5.42891006312801,4.8805511355488775,-4.597082450519899,-2.4846259659906518,2.0362313782315717,3.9141338451805066,-4.513657162364587,0.8853626761529694,4.556577955592573,7.713762804396094,3.4675229399356553
sub-P009,Contrast4Size3,0,-0.011055158294186015,0.48583440617622087,1.62216046889776,2.0249372392059906,5.154054911056887,3.816900188603141,0.8660382407421362,-1.765160001520507,4.38917565187546,4.121862869348784,0.0918172119606484,0.019423808227024622,-0.0018771165824781229,5.150628426311476,7.553799921513823,3.6083962068531634
sub-P009,Contrast4Size3,1,-2.5296416427890733,-1.4789413545888772,4.747545740519906,1.3400216092689199,-1.6390890506597886,-0.6135065440764241,3.7701709879363006,5.4792678786153095,3.038532376677632,-0.41042038557016025,-2.3517004449877543,6.192695542599954,-2.32587431760363,7.741643011324882,8.293837346907486,4.265937678602923
sub-P009,Contrast4Size3,2,3.5850617033715797,2.802870612476547,3.1564088802684815,4.91706879274307,3.65007737293509,3.285691119787297,0.667103043098006,4.572704425917513,4.085628499842505,2.8395101635765836,2.9727575156337362,4.618206864850103,0.5254157589751184,2.3208537608832556,2.60862395695515,-0.9021336857475615
sub-P009,Contrast4Size3,3,1.7898493742653145,1.8021652164604207,0.5659067764732557,7.290129205715813,5.553994122372089,2.953498465903583,1.7015830068816087,7.961719393097868,8.320150810257651,2.7819062784903856,1.6741446873776813,8.263886033062377,2.30734320288269,9.788129459388683,11.299780788432672,6.759780378420083
sub-P010,Contrast1Size1,0,7.668801842976112,8.762661971114321,4.265451446289468,5.402321789866836,8.418185088748494,7.2956110182638545,3.7003156381158098,8.725960478888892,6.882687484666415,6.947173649852445,5.710160827243733,7.993265081379533,7.890216111818569,10.070812255275065,12.65399691119918,13.407266483438027
sub-P010,Contrast1Size1,1,6.540816743988126,7.156152270093507,2.3559675074083555,7.1432238825467635,8.85332207398312,6.932508143636963,3.472037788459833,2.5575355931286063,6.482540760997082,8.011664879040872,3.846771415547155,0.010609192245116302,3.581868679802829,0.4520092932226871,4.761269553851358,5.379254728812281
sub-P010,Contrast1Size2,0,0.15652441050472254,-0.10652991458451233,0.9958276420483874,0.4631092467460436,-0.7790452266871191,3.130170715508929,2.2787963813757846,-1.2496085431905848,0.09725027249998835,1.4124583703224358,2.0824516880701256,-2.0391171550770752,-1.3431641740238267,-2.3278700904351055,3.7980885496112995,2.9727664295419034
sub-P010,Contrast1Size2,1,1.709289327368355,4.2981723338095,4.741242401335098,-6.136412396408986,-6.64388060498816,3.503732279584204,7.07344810735666,-6.741642801479477,-7.828334926530983,-2.379934401231174,-0.7832675962516845,-5.47072254428934,-2.6917616263192556,-7.36351491281442,7.406394016176745,6.600572012096324
sub-P010,Contrast1Size3,0,0.04070746936170365,0.09697644066308242,-2.3079427319226467,2.3293680131921644,3.4566726823584566,4.600928457856268,2.7625481011915562,5.9351215569576246,7.3542126206473935,7.353336074390241,2.5427262469267973,6.495616546325593,4.231767936900617,4.485470268319367,13.315891582717814,11.967378161197004
sub-P010,Contrast1Size3,1,2.699101696275226,3.1718266430593918,-0.5496170523990276,1.1354046249904994,-4.8105373950504395,-0.4523186180476338,2.6870313845485945,2.5101289378270515,-0.5244552642119666,-6.9746086803707295,-6.943061442305424,0.28084275323169255,-8.11464910852376,-10.91928349553758,-1.603321701044269,-2.107637246281295
sub-P010,Contrast1Size3,2,-6.425299804454244,-5.760163345055078,-3.916696676926911,-8.142663191126502,-8.299869805174469,-4.659302708940044,2.414514899181958,3.5624180377074643,-0.7722021536791734,1.5713476004849278,2.963307764730959,5.8735436015214235,3.456930928821695,6.3813330345616155,8.42524749010653,7.35193959530128
sub-P010,Contrast2Size1,0,-5.151577094063504,-3.8420103676665796,-2.380317631342307,-5.909064644896732,-8.53042685151572,-7.612194733997796,-7.056554299576253,-1.9365252066075431,-5.214943735973082,-0.20062850694557194,-0.36669477781440907,1.1212622111111332,4.521494803925847,5.252174079416512,8.740928909530686,9.265787966837317
sub-P010,Contrast2Size1,1,-3.6021545330296263,-1.0570774766458144,-1.4535636983913036,-5.6394025890158215,-3.838842296864024,4.620783987720033,4.332073974026079,-0.09944787887457021,0.39007758873893966,0.10107398460608479,1.7828114574807155,3.168521523667993,3.5840998341760635,7.120507957082003,10.49395980447759,10.018796799063477
sub-P010,Contrast2Size1,2,-7.264290614576755,-5.975584086275779,-8.352962591464104,-7.01780086820936,-5.62061461213807,-3.374396579879167,-1.8102063036718044,-3.4214321577298277,-5.98183672037723,0.9247689391576646,-0.1971372988988086,-3.187937877436553,1.7388840066450542,-1.0837356488434957,4.044625009681494,4.888156651720768
sub-P010,Contrast2Size1,3,2.5986255628569133,1.261666693073173,-0.4560288227878107,2.7679033094240557,3.356334779050073,2.546733023016441,-4.615091699289129,5.420230886558634,7.431618595977193,8.43450170044039,5.066465775152866,5.523435517280405,5.160038313838912,7.141055662677412,8.54758642418608,7.464821217368829
sub-P010,Contrast2Size2,0,7.54473460504042,7.852688800353223,3.362883661916803,3.2080863864508964,3.1227001425566936,6.509885098598174,0.8084139918952049,3.4027034296812584,-0.7505494012163565,1.4767499443714038,1.2941303906209998,2.3803137056617505,-0.34612608325407773,3.5045096458909795,6.128518136338011,5.555155329322138
sub-P010,Contrast2Size2,1,3.7704385911216187,2.706460960146261,-0.5280360851925299,6.2104486162916945,5.866889933948069,6.5275301433645385,1.6512148529462898,4.763046344447402,7.1822069025790025,7.536302618932604,2.3119571331032187,4.6973274236810045,4.52660641634828,6.809057934582597,9.166180743931765,8.257424590756289
sub-P010,Contrast2Size2,2,-5.2025401200338175,-7.47428735365879,-6.345752206680536,-2.2595000007460606,0.7360352977438915,-3.842898749663774,-5.970919173062155,1.8274638142194588,3.335931425272566,1.2976539084598893,-2.1125184888400153,4.002935211891627,-2.3455089183932687,5.622964772988274,7.1948116904461195,4.9083874244273105
sub-P010,Contrast2Size3,0,1.0247091854453387,0.904909413437649,3.3340476808574895,-1.8788694847277276,0.15247253697236726,0.8731010559568095,-3.4154646779321074,0.24131262631940564,0.7409290178804098,-3.189906627706856,0.26505105966617015,1.4616061339638011,-2.124667863896933,2.379728674585925,3.593895167386521,2.180645905762311
sub-P010,Contrast2Size3,1,0.9957290983881356,1.29740356343645,1.146820130856617,-5.048435054438753,-6.523383146382875,-5.005718693017432,-2.009191948175494,-2.1018012956342695,-1.3047685247878409,-0.05485313963662239,0.6173427106221031,2.0664471696777476,5.414224448490545,7.537756512343618,12.92542293111776,12.442437556759295
sub-P010,Contrast3Size1,0,1.3594097336295472,-2.67085793473778,-5.206544483101129,4.945884407527597,2.0273582525067186,-0.7143104145792895,4.547170818468701,4.366892910805434,4.90234480826861,-0.6426248453218892,-2.1494245585956846,2.9330095825865103,-2.1674795391324233,3.1057097722618288,9.086967059233862,8.881978513993191
